Swept SA,
A.14.62,N9000A
503 EP4 ,01
Segment,0
Number of Points,1001
Sweep Time,0.002066667
Start Frequency,499000000
Stop Frequency,501000000
Average Count,50
Average Type,Power(RMS)
RBW,100000
RBW Filter,Gaussian
RBW Filter BW,3dB
VBW,10000
Sweep Type,Swept
X Axis Scale,Lin
PreAmp State,Off
PreAmp Band,Low
Trigger Source,Free
Trigger Level,1.2
Trigger Slope,Positive
Trigger Delay,0
Phase Noise Optimization,Narrow
Swept If Gain,Low
FFT If Gain,Autorange
RF Coupling,AC
FFT Width,411900
Ext Ref,10000000
Input,RF
RF Calibrator,Off
Attenuation,10
Ref Level Offset,0
External Gain,0
Trace Type,Average
Detector,Average
Trace Math,Off
Trace Math Oper1,Trace5
Trace Math Oper2,Trace6
Trace Math Offset,0
Normalize,Off
Trace Name,Trace1
X Axis Units,Hz
Y Axis Units,dBm
DATA,
499000000,-89.21603796
499002000,-89.03457542
499004000,-89.15118102
499006000,-89.85961227
499008000,-90.54745352
499010000,-90.42382177
499012000,-89.74079345
499014000,-88.99292258
499016000,-88.85523383
499018000,-89.00132953
499020000,-88.81197628
499022000,-88.56460348
499024000,-88.42686009
499026000,-88.46307996
499028000,-88.57697988
499030000,-88.50460158
499032000,-88.29408817
499034000,-88.1622328
499036000,-88.14133586
499038000,-88.28942912
499040000,-88.3322245
499042000,-88.06373463
499044000,-88.15285561
499046000,-88.74674357
499048000,-89.19722769
499050000,-89.58924924
499052000,-90.15177097
499054000,-90.05057102
499056000,-89.35363653
499058000,-88.95469456
499060000,-88.58977487
499062000,-88.21335644
499064000,-88.17667792
499066000,-88.62523405
499068000,-88.73615068
499070000,-88.19837558
499072000,-87.8410405
499074000,-88.16383675
499076000,-89.01079506
499078000,-89.63998545
499080000,-89.46023868
499082000,-89.5555151
499084000,-90.15455262
499086000,-90.2833285
499088000,-89.90236101
499090000,-89.46154183
499092000,-89.71308086
499094000,-89.64926717
499096000,-88.85303612
499098000,-88.68054676
499100000,-88.83308268
499102000,-88.78586548
499104000,-88.85255854
499106000,-89.09846878
499108000,-89.12565784
499110000,-88.95208401
499112000,-88.79913045
499114000,-88.84006491
499116000,-89.16104825
499118000,-89.48325859
499120000,-89.59291761
499122000,-89.4268123
499124000,-89.32214311
499126000,-89.79008008
499128000,-89.95758274
499130000,-89.60740999
499132000,-89.37764975
499134000,-89.25785405
499136000,-89.30903084
499138000,-89.266251
499140000,-89.13424185
499142000,-89.45673846
499144000,-90.32593504
499146000,-91.08275682
499148000,-90.40312901
499150000,-89.36083884
499152000,-89.15143146
499154000,-89.1572588
499156000,-89.04150457
499158000,-88.87891997
499160000,-88.51902014
499162000,-88.4906416
499164000,-88.77956907
499166000,-88.73477157
499168000,-88.62903477
499170000,-89.24147777
499172000,-89.8546386
499174000,-89.17995851
499176000,-88.33342877
499178000,-88.24542262
499180000,-88.80884373
499182000,-89.02721308
499184000,-88.77562221
499186000,-88.88661568
499188000,-89.01051327
499190000,-88.7038306
499192000,-88.63116182
499194000,-88.73067049
499196000,-88.51265797
499198000,-87.99169627
499200000,-87.74009586
499202000,-88.21672977
499204000,-89.20240266
499206000,-90.13025763
499208000,-90.52305065
499210000,-90.38751567
499212000,-89.57188694
499214000,-88.75716916
499216000,-88.64186978
499218000,-88.80563642
499220000,-89.10435536
499222000,-89.4593966
499224000,-89.34835425
499226000,-89.52472317
499228000,-90.707375
499230000,-91.59978736
499232000,-90.91366337
499234000,-89.99064191
499236000,-89.38437506
499238000,-89.31252623
499240000,-89.78150235
499242000,-89.71433883
499244000,-89.38590047
499246000,-89.1853559
499248000,-88.58258545
499250000,-88.11430213
499252000,-88.29917798
499254000,-88.71839115
499256000,-89.04274435
499258000,-89.11716437
499260000,-89.19306198
499262000,-89.51532613
499264000,-89.62778174
499266000,-89.35981694
499268000,-89.34423414
499270000,-89.80384761
499272000,-90.14477768
499274000,-89.86530678
499276000,-89.36618453
499278000,-88.79555499
499280000,-88.44925211
499282000,-88.61016221
499284000,-88.95530058
499286000,-89.14065219
499288000,-89.05417726
499290000,-88.97320854
499292000,-89.2121026
499294000,-89.17982815
499296000,-88.70565329
499298000,-88.67835266
499300000,-88.91273772
499302000,-88.86020167
499304000,-88.80795968
499306000,-88.92212548
499308000,-89.10536623
499310000,-89.11309103
499312000,-89.43988878
499314000,-89.83896462
499316000,-89.65201086
499318000,-89.77245699
499320000,-90.65846814
499322000,-90.8062868
499324000,-89.63319483
499326000,-88.60160839
499328000,-87.86769669
499330000,-87.06341324
499332000,-86.90514582
499334000,-87.73327774
499336000,-88.61884675
499338000,-88.75625798
499340000,-88.59472195
499342000,-88.85568332
499344000,-89.67749428
499346000,-90.10390406
499348000,-90.0123404
499350000,-89.65518708
499352000,-88.7669862
499354000,-88.1667054
499356000,-88.5130909
499358000,-89.16615413
499360000,-89.58255011
499362000,-90.02443973
499364000,-89.9425574
499366000,-89.6650912
499368000,-89.79440027
499370000,-89.97088834
499372000,-89.93557092
499374000,-90.08097179
499376000,-89.80645952
499378000,-88.90999179
499380000,-88.39467491
499382000,-88.29075576
499384000,-88.14672149
499386000,-88.16654366
499388000,-88.6637088
499390000,-89.22413067
499392000,-89.2629236
499394000,-88.80540343
499396000,-88.3938357
499398000,-88.35099632
499400000,-88.28114172
499402000,-88.12026113
499404000,-87.89431143
499406000,-87.59503824
499408000,-87.61749969
499410000,-87.83894468
499412000,-87.91333478
499414000,-88.43679544
499416000,-89.60508737
499418000,-90.24882969
499420000,-89.50387484
499422000,-88.77380229
499424000,-88.93877455
499426000,-89.49566344
499428000,-90.47356527
499430000,-90.73502851
499432000,-89.6955128
499434000,-89.17368665
499436000,-88.97643568
499438000,-88.655628
499440000,-88.56704007
499442000,-88.93123313
499444000,-88.95935899
499446000,-88.2974232
499448000,-87.85017104
499450000,-87.88073924
499452000,-88.13974968
499454000,-88.33186269
499456000,-88.55889712
499458000,-89.05469122
499460000,-89.20962039
499462000,-89.08186135
499464000,-89.19584781
499466000,-89.50220596
499468000,-89.43784084
499470000,-88.81373773
499472000,-88.36733017
499474000,-88.52473303
499476000,-88.62254356
499478000,-87.91875754
499480000,-87.4701825
499482000,-87.94999396
499484000,-88.87703638
499486000,-89.69322651
499488000,-90.00498261
499490000,-89.87304072
499492000,-89.29930925
499494000,-88.89799039
499496000,-89.03131269
499498000,-89.40495818
499500000,-89.81630426
499502000,-90.04565613
499504000,-89.7521986
499506000,-89.3630951
499508000,-88.92720006
499510000,-88.78195629
499512000,-89.33877843
499514000,-89.60020079
499516000,-89.12272396
499518000,-88.59326741
499520000,-88.32341699
499522000,-88.65262597
499524000,-89.4231442
499526000,-89.66046991
499528000,-89.62235386
499530000,-89.44243415
499532000,-88.91296573
499534000,-88.95665911
499536000,-89.61862172
499538000,-90.39375384
499540000,-90.97162286
499542000,-91.08150858
499544000,-90.4146889
499546000,-89.82162841
499548000,-89.71564393
499550000,-89.57967918
499552000,-88.96003281
499554000,-88.29572033
499556000,-88.30414172
499558000,-88.79475503
499560000,-89.16775085
499562000,-89.50321767
499564000,-89.54404252
499566000,-89.2915408
499568000,-89.048537
499570000,-88.77965343
499572000,-88.55442266
499574000,-88.62895853
499576000,-89.13837737
499578000,-89.45753878
499580000,-89.22885804
499582000,-88.77853011
499584000,-88.51254381
499586000,-88.58346369
499588000,-88.60722153
499590000,-89.02395063
499592000,-89.81373213
499594000,-90.21479132
499596000,-89.98586933
499598000,-89.99063185
499600000,-90.07632325
499602000,-89.64707925
499604000,-89.02111833
499606000,-88.79056522
499608000,-89.05556642
499610000,-89.28247933
499612000,-89.2961716
499614000,-89.37175928
499616000,-89.40838587
499618000,-89.66478704
499620000,-90.22307836
499622000,-90.44498103
499624000,-89.95939231
499626000,-89.39005207
499628000,-89.16894551
499630000,-89.22010252
499632000,-89.2008368
499634000,-89.12491122
499636000,-89.35086745
499638000,-89.63011126
499640000,-89.40608063
499642000,-89.37006682
499644000,-90.04770901
499646000,-90.64842121
499648000,-90.61487559
499650000,-90.75867434
499652000,-90.66787622
499654000,-90.13933494
499656000,-89.9663771
499658000,-89.95234656
499660000,-89.79488252
499662000,-89.76090179
499664000,-89.69192796
499666000,-89.34713707
499668000,-89.06301436
499670000,-89.46371669
499672000,-90.11021817
499674000,-90.0595535
499676000,-89.64387509
499678000,-89.56863986
499680000,-89.42305109
499682000,-89.07325051
499684000,-88.9783664
499686000,-88.75944286
499688000,-88.62351733
499690000,-89.27314757
499692000,-90.05147732
499694000,-89.94891166
499696000,-89.90367236
499698000,-89.95066661
499700000,-89.25868789
499702000,-88.59498638
499704000,-88.68428188
499706000,-89.28137897
499708000,-89.5745999
499710000,-89.39597255
499712000,-89.35163723
499714000,-89.07337409
499716000,-88.61490297
499718000,-88.71065694
499720000,-89.02500265
499722000,-89.16414465
499724000,-89.48497627
499726000,-89.80824887
499728000,-89.48166095
499730000,-88.89706782
499732000,-88.81317307
499734000,-88.82045462
499736000,-88.53129198
499738000,-88.43031163
499740000,-88.57220357
499742000,-88.51737903
499744000,-88.35225135
499746000,-88.4909791
499748000,-88.66226788
499750000,-88.8754762
499752000,-89.22282904
499754000,-89.34793874
499756000,-89.39165735
499758000,-89.5519284
499760000,-89.40193804
499762000,-89.62547075
499764000,-90.38321168
499766000,-90.14591486
499768000,-89.37981654
499770000,-88.9668974
499772000,-88.96164552
499774000,-89.22734473
499776000,-89.29034924
499778000,-89.25779384
499780000,-89.30122277
499782000,-89.01302302
499784000,-88.5992315
499786000,-88.27915327
499788000,-88.22639014
499790000,-88.3147007
499792000,-88.40267198
499794000,-88.38128354
499796000,-88.38195918
499798000,-88.57084154
499800000,-88.49343134
499802000,-88.42832283
499804000,-88.63285435
499806000,-88.78370236
499808000,-89.09594028
499810000,-89.01595856
499812000,-88.65935837
499814000,-88.35795919
499816000,-88.376648
499818000,-88.91079434
499820000,-89.70327564
499822000,-89.4386902
499824000,-88.55035546
499826000,-88.48438863
499828000,-88.51273053
499830000,-88.49497629
499832000,-88.29270388
499834000,-88.21067987
499836000,-87.67477333
499838000,-87.23980723
499840000,-86.60353105
499842000,-86.31470766
499844000,-85.53445815
499846000,-85.18883521
499848000,-84.41780191
499850000,-83.16078865
499852000,-83.07265662
499854000,-82.27309932
499856000,-81.85350698
499858000,-80.71264062
499860000,-79.94521255
499862000,-80.08133966
499864000,-78.79561328
499866000,-78.08674234
499868000,-77.57353624
499870000,-76.96703299
499872000,-76.43506935
499874000,-75.75608245
499876000,-74.58571182
499878000,-73.95793274
499880000,-73.64098335
499882000,-73.03946599
499884000,-72.32531075
499886000,-71.63145998
499888000,-71.06877551
499890000,-70.43406077
499892000,-69.94265773
499894000,-69.41036403
499896000,-68.83743656
499898000,-68.32241882
499900000,-67.76556193
499902000,-67.18150484
499904000,-66.6651044
499906000,-66.24484579
499908000,-65.82858776
499910000,-65.33012699
499912000,-64.78506748
499914000,-64.32746539
499916000,-63.95139395
499918000,-63.55678577
499920000,-63.17861111
499922000,-62.78875247
499924000,-62.36244269
499926000,-61.9909265
499928000,-61.62040806
499930000,-61.23497969
499932000,-60.89818531
499934000,-60.59009113
499936000,-60.26421771
499938000,-59.90973987
499940000,-59.59368682
499942000,-59.36226964
499944000,-59.11030902
499946000,-58.79990343
499948000,-58.50626259
499950000,-58.2669692
499952000,-58.04971763
499954000,-57.82378943
499956000,-57.59092679
499958000,-57.37189396
499960000,-57.16617391
499962000,-56.98104376
499964000,-56.82619999
499966000,-56.67997419
499968000,-56.51734571
499970000,-56.3508692
499972000,-56.20359493
499974000,-56.07591524
499976000,-55.94386742
499978000,-55.80578612
499980000,-55.69036376
499982000,-55.61223367
499984000,-55.55081921
499986000,-55.48468311
499988000,-55.41812338
499990000,-55.36402742
499992000,-55.32482013
499994000,-55.28835229
499996000,-55.25179287
499998000,-55.2262757
500000000,-55.22174184
500002000,-55.23160575
500004000,-55.24534807
500006000,-55.2695791
500008000,-55.31252658
500010000,-55.36519277
500012000,-55.41264693
500014000,-55.45619979
500016000,-55.51182913
500018000,-55.58787717
500020000,-55.67836761
500022000,-55.77812311
500024000,-55.89419531
500026000,-56.02305344
500028000,-56.15599543
500030000,-56.29133593
500032000,-56.43740235
500034000,-56.60476481
500036000,-56.79051385
500038000,-56.97992834
500040000,-57.15368746
500042000,-57.32914043
500044000,-57.5314693
500046000,-57.73565954
500048000,-57.93724441
500050000,-58.18695247
500052000,-58.47637584
500054000,-58.76825665
500056000,-59.03745956
500058000,-59.29275185
500060000,-59.56213571
500062000,-59.86231099
500064000,-60.16515408
500066000,-60.50662267
500068000,-60.85405695
500070000,-61.10526827
500072000,-61.39723245
500074000,-61.8275147
500076000,-62.28984578
500078000,-62.65595752
500080000,-62.99473414
500082000,-63.44167423
500084000,-63.91032701
500086000,-64.30560402
500088000,-64.69379969
500090000,-65.20074686
500092000,-65.75026368
500094000,-66.17113816
500096000,-66.55219982
500098000,-67.04417029
500100000,-67.58703649
500102000,-68.14424786
500104000,-68.68815643
500106000,-69.1595216
500108000,-69.67560206
500110000,-70.4079204
500112000,-71.04855403
500114000,-71.43038664
500116000,-72.05154266
500118000,-72.77088731
500120000,-73.24960088
500122000,-73.93604376
500124000,-74.7649024
500126000,-75.6467259
500128000,-76.09560815
500130000,-76.47664775
500132000,-77.19616145
500134000,-78.13046603
500136000,-79.10923211
500138000,-79.24301783
500140000,-80.18553698
500142000,-81.19952992
500144000,-81.56843708
500146000,-82.48536873
500148000,-83.08512872
500150000,-83.57331808
500152000,-85.09722039
500154000,-84.9143732
500156000,-85.38910013
500158000,-86.4728135
500160000,-85.47861689
500162000,-85.85550618
500164000,-87.50424399
500166000,-87.27495444
500168000,-87.21263864
500170000,-87.91995134
500172000,-88.07554001
500174000,-87.73595725
500176000,-88.58994299
500178000,-88.50708036
500180000,-88.09342734
500182000,-88.87888099
500184000,-88.98257799
500186000,-89.29448754
500188000,-89.15395364
500190000,-88.83981955
500192000,-88.67266991
500194000,-88.86029755
500196000,-89.34565602
500198000,-89.16507032
500200000,-88.30765141
500202000,-88.301895
500204000,-88.85812739
500206000,-89.5914508
500208000,-90.04975176
500210000,-90.08384794
500212000,-90.07198359
500214000,-89.91378314
500216000,-89.4301643
500218000,-88.78120703
500220000,-88.19211814
500222000,-88.04000238
500224000,-88.55223092
500226000,-89.15146523
500228000,-89.20919618
500230000,-89.09151492
500232000,-89.44935547
500234000,-90.06132109
500236000,-90.54485431
500238000,-90.82006637
500240000,-90.71726981
500242000,-89.95426075
500244000,-89.47627212
500246000,-89.38528756
500248000,-89.21794775
500250000,-89.10608101
500252000,-89.23174402
500254000,-89.6254564
500256000,-89.95096844
500258000,-89.82032656
500260000,-89.12148336
500262000,-88.80201445
500264000,-89.30818972
500266000,-89.63170303
500268000,-89.44944113
500270000,-89.5229653
500272000,-89.80968212
500274000,-89.69013805
500276000,-89.3986592
500278000,-89.31893519
500280000,-89.73573125
500282000,-90.46231845
500284000,-90.2726071
500286000,-89.1630222
500288000,-88.25028796
500290000,-88.17869167
500292000,-88.94951695
500294000,-89.68589802
500296000,-89.90119919
500298000,-90.0255531
500300000,-89.70288572
500302000,-89.1568128
500304000,-88.75275031
500306000,-88.5642927
500308000,-88.74971702
500310000,-89.19636848
500312000,-89.63018541
500314000,-89.37365868
500316000,-88.69648261
500318000,-88.35176663
500320000,-88.05122564
500322000,-88.24658163
500324000,-88.90952486
500326000,-89.28908267
500328000,-89.12510426
500330000,-88.76493047
500332000,-88.6544653
500334000,-88.72729254
500336000,-89.23402048
500338000,-89.23552173
500340000,-88.51387402
500342000,-88.2420097
500344000,-88.79750465
500346000,-89.39795944
500348000,-89.16586129
500350000,-89.1049675
500352000,-89.4367071
500354000,-89.2638281
500356000,-89.09577015
500358000,-89.44857515
500360000,-89.38090841
500362000,-88.90850596
500364000,-88.79050432
500366000,-88.94430128
500368000,-89.10831466
500370000,-89.40934406
500372000,-89.73236239
500374000,-89.531457
500376000,-88.94881439
500378000,-88.50601357
500380000,-88.32524026
500382000,-88.36729049
500384000,-88.84921127
500386000,-89.30667857
500388000,-89.26361573
500390000,-89.17950793
500392000,-89.27014222
500394000,-89.674114
500396000,-90.14601092
500398000,-90.15517036
500400000,-89.65869886
500402000,-89.25677591
500404000,-89.43574761
500406000,-89.95180619
500408000,-90.17913398
500410000,-89.90091504
500412000,-89.36252838
500414000,-89.11321718
500416000,-89.39096446
500418000,-89.72331204
500420000,-89.29974716
500422000,-88.8253134
500424000,-89.08257216
500426000,-89.21798299
500428000,-89.14552492
500430000,-88.87966096
500432000,-88.58321404
500434000,-88.84338618
500436000,-89.43828583
500438000,-89.80004349
500440000,-89.3608106
500442000,-88.82049384
500444000,-88.90107933
500446000,-89.11893528
500448000,-89.2132539
500450000,-89.44383763
500452000,-90.13245524
500454000,-90.38406021
500456000,-89.49489096
500458000,-88.77904785
500460000,-88.75292138
500462000,-89.4406028
500464000,-89.95849211
500466000,-89.31120227
500468000,-88.67653105
500470000,-88.79817852
500472000,-89.01660881
500474000,-88.9042108
500476000,-89.03359459
500478000,-89.31020451
500480000,-89.22485926
500482000,-89.34043971
500484000,-89.57244549
500486000,-89.30312788
500488000,-88.76041485
500490000,-88.79196123
500492000,-89.16217588
500494000,-89.02587842
500496000,-88.70432344
500498000,-88.95259239
500500000,-89.42024282
500502000,-89.17573353
500504000,-88.47286643
500506000,-88.3658333
500508000,-88.70863721
500510000,-88.92647116
500512000,-88.83531106
500514000,-88.44441633
500516000,-88.29317305
500518000,-88.62542436
500520000,-88.9273074
500522000,-88.8428139
500524000,-88.69369499
500526000,-88.68276115
500528000,-88.85133083
500530000,-88.84613951
500532000,-88.55678422
500534000,-88.67282493
500536000,-89.63228682
500538000,-90.25990123
500540000,-89.8066394
500542000,-89.47259439
500544000,-89.44507479
500546000,-89.36525875
500548000,-89.27468633
500550000,-89.34039778
500552000,-89.49688169
500554000,-89.39481218
500556000,-88.98248844
500558000,-88.53549713
500560000,-88.49095647
500562000,-89.22442226
500564000,-90.0963535
500566000,-90.2705027
500568000,-90.23298163
500570000,-90.0783613
500572000,-89.67544906
500574000,-89.58813497
500576000,-89.69128114
500578000,-89.26778935
500580000,-88.73548658
500582000,-88.61474259
500584000,-88.82082476
500586000,-89.15023139
500588000,-89.10695405
500590000,-88.93412044
500592000,-89.11180019
500594000,-89.20797389
500596000,-89.04137201
500598000,-88.5546174
500600000,-88.14888754
500602000,-88.51873375
500604000,-89.13138368
500606000,-89.02633185
500608000,-88.73449485
500610000,-88.71563657
500612000,-89.042519
500614000,-89.42302869
500616000,-89.25303384
500618000,-88.88495755
500620000,-88.76573411
500622000,-88.79261332
500624000,-88.61800563
500626000,-88.57399292
500628000,-88.81406993
500630000,-89.47242362
500632000,-89.88906472
500634000,-89.34457832
500636000,-88.87388981
500638000,-88.80356209
500640000,-88.69778773
500642000,-88.71236608
500644000,-88.98906928
500646000,-89.35026987
500648000,-89.61341082
500650000,-89.72994471
500652000,-89.59922668
500654000,-89.23132771
500656000,-88.96669612
500658000,-88.80859498
500660000,-88.95462908
500662000,-89.03823819
500664000,-88.61596598
500666000,-88.19407005
500668000,-88.36183965
500670000,-89.15061749
500672000,-89.78324486
500674000,-89.52683961
500676000,-88.93439454
500678000,-88.57906506
500680000,-88.28883721
500682000,-88.15305791
500684000,-88.28423866
500686000,-88.78773273
500688000,-89.35347592
500690000,-89.1354887
500692000,-88.3241365
500694000,-87.79040629
500696000,-87.91223525
500698000,-88.51591538
500700000,-88.9654959
500702000,-89.07988398
500704000,-89.04394615
500706000,-88.91199033
500708000,-89.06487154
500710000,-89.11760303
500712000,-88.81746377
500714000,-88.78496791
500716000,-89.03584988
500718000,-88.90465523
500720000,-88.51333963
500722000,-88.46749416
500724000,-88.67194569
500726000,-88.9658604
500728000,-89.39246614
500730000,-89.50177944
500732000,-89.17830263
500734000,-88.82018032
500736000,-88.56131797
500738000,-88.66966856
500740000,-88.97169808
500742000,-89.15280713
500744000,-89.08720449
500746000,-88.75358187
500748000,-88.68751092
500750000,-88.82213011
500752000,-88.86960225
500754000,-88.57156624
500756000,-88.5774172
500758000,-89.30550184
500760000,-89.67403951
500762000,-89.21397401
500764000,-88.57704596
500766000,-88.62235532
500768000,-89.08555172
500770000,-89.19811855
500772000,-89.175452
500774000,-89.17334054
500776000,-89.08384542
500778000,-89.13763945
500780000,-89.34340747
500782000,-89.40764659
500784000,-89.38147833
500786000,-89.19031932
500788000,-88.90821284
500790000,-88.77469743
500792000,-88.97396103
500794000,-89.21637348
500796000,-89.52030265
500798000,-89.59755136
500800000,-89.69451075
500802000,-90.01012226
500804000,-89.99458429
500806000,-89.99803099
500808000,-89.87603544
500810000,-89.33631695
500812000,-88.61819896
500814000,-88.13468488
500816000,-88.46853965
500818000,-89.42569843
500820000,-89.79943367
500822000,-89.23117292
500824000,-88.78053995
500826000,-88.65834907
500828000,-88.80942322
500830000,-89.13717486
500832000,-89.2463447
500834000,-88.97822
500836000,-88.7528599
500838000,-88.94679777
500840000,-89.62087598
500842000,-89.99982504
500844000,-89.5531173
500846000,-89.13869526
500848000,-89.0005383
500850000,-88.80641656
500852000,-89.13975364
500854000,-89.94077162
500856000,-89.92989435
500858000,-89.49924556
500860000,-89.46745302
500862000,-89.55783071
500864000,-88.90998917
500866000,-88.11622414
500868000,-88.2181268
500870000,-88.92679151
500872000,-89.43450545
500874000,-89.40102377
500876000,-89.14440631
500878000,-89.06213192
500880000,-89.31470934
500882000,-89.35325246
500884000,-88.80511133
500886000,-88.61112822
500888000,-88.62425358
500890000,-88.35755014
500892000,-88.13759835
500894000,-88.40034914
500896000,-89.23181152
500898000,-89.82105259
500900000,-89.37880908
500902000,-89.1866294
500904000,-89.61188609
500906000,-89.7646391
500908000,-89.47160414
500910000,-89.24614536
500912000,-89.47158692
500914000,-89.75990022
500916000,-89.66254395
500918000,-89.4866189
500920000,-89.3924563
500922000,-89.15806635
500924000,-89.11559646
500926000,-89.34298102
500928000,-89.46708046
500930000,-89.7975576
500932000,-90.18842861
500934000,-89.99227211
500936000,-89.22630004
500938000,-88.69727387
500940000,-88.6090187
500942000,-88.68233761
500944000,-88.95123588
500946000,-89.03976021
500948000,-89.06374011
500950000,-89.46904926
500952000,-89.77603053
500954000,-89.59349664
500956000,-89.32768172
500958000,-89.42873402
500960000,-89.3757766
500962000,-88.96592663
500964000,-88.7554779
500966000,-89.43345358
500968000,-90.68797177
500970000,-90.68914532
500972000,-89.52432555
500974000,-88.79800012
500976000,-88.84469306
500978000,-89.15110759
500980000,-89.23575164
500982000,-89.68517735
500984000,-89.97844235
500986000,-89.45272416
500988000,-89.12025117
500990000,-89.384859
500992000,-89.58841588
500994000,-89.41682064
500996000,-89.55864858
500998000,-89.7407189
501000000,-89.06167344
