Swept SA,
A.14.62,N9000A
503 EP4 ,01
Segment,0
Number of Points,1001
Sweep Time,0.0102
Start Frequency,499950000
Stop Frequency,500050000
Average Count,50
Average Type,Power(RMS)
RBW,10000
RBW Filter,Gaussian
RBW Filter BW,3dB
VBW,1000
Sweep Type,Swept
X Axis Scale,Lin
PreAmp State,Off
PreAmp Band,Low
Trigger Source,Free
Trigger Level,1.2
Trigger Slope,Positive
Trigger Delay,0
Phase Noise Optimization,Wide
Swept If Gain,Low
FFT If Gain,Autorange
RF Coupling,AC
FFT Width,411900
Ext Ref,10000000
Input,RF
RF Calibrator,Off
Attenuation,10
Ref Level Offset,0
External Gain,0
Trace Type,Average
Detector,Average
Trace Math,Off
Trace Math Oper1,Trace5
Trace Math Oper2,Trace6
Trace Math Offset,0
Normalize,Off
Trace Name,Trace1
X Axis Units,Hz
Y Axis Units,dBm
DATA,
499950000,-99.58480523
499950100,-99.59168077
499950200,-99.61097814
499950300,-99.60454105
499950400,-99.53365121
499950500,-99.42429309
499950600,-99.36382026
499950700,-99.43524173
499950800,-99.57702575
499950900,-99.59934193
499951000,-99.38790189
499951100,-99.06474516
499951200,-98.80388239
499951300,-98.70849982
499951400,-98.78035423
499951500,-98.95489639
499951600,-99.14342763
499951700,-99.25801434
499951800,-99.25502502
499951900,-99.16477893
499952000,-99.0966272
499952100,-99.08370468
499952200,-99.06710014
499952300,-98.99253608
499952400,-98.89826067
499952500,-98.8365209
499952600,-98.88574801
499952700,-99.07527073
499952800,-99.36196053
499952900,-99.70275415
499953000,-100.052845
499953100,-100.3463456
499953200,-100.47851
499953300,-100.4489894
499953400,-100.345594
499953500,-100.3249583
499953600,-100.4038717
499953700,-100.4868961
499953800,-100.4818029
499953900,-100.3268423
499954000,-100.0489196
499954100,-99.73840933
499954200,-99.48461059
499954300,-99.30810094
499954400,-99.1892043
499954500,-99.08552521
499954600,-99.03004053
499954700,-99.05394324
499954800,-99.19247601
499954900,-99.44239365
499955000,-99.77247249
499955100,-100.0945148
499955200,-100.3199134
499955300,-100.4060066
499955400,-100.4401416
499955500,-100.4369358
499955600,-100.4071588
499955700,-100.2550071
499955800,-99.96166915
499955900,-99.59335842
499956000,-99.27665307
499956100,-99.09333678
499956200,-99.02458336
499956300,-99.01483516
499956400,-99.0584781
499956500,-99.18559006
499956600,-99.43069697
499956700,-99.711668
499956800,-99.92104033
499956900,-100.042435
499957000,-100.1887868
499957100,-100.4555406
499957200,-100.7632617
499957300,-100.914369
499957400,-100.7621448
499957500,-100.406881
499957600,-100.0647242
499957700,-99.88456445
499957800,-99.8699925
499957900,-99.92877094
499958000,-99.99755464
499958100,-100.0701193
499958200,-100.1322284
499958300,-100.1499569
499958400,-100.0705233
499958500,-99.9426641
499958600,-99.88316301
499958700,-99.97041403
499958800,-100.215599
499958900,-100.4720995
499959000,-100.5653343
499959100,-100.4258908
499959200,-100.1513896
499959300,-99.87471869
499959400,-99.62301406
499959500,-99.41752518
499959600,-99.30873814
499959700,-99.34857084
499959800,-99.53090835
499959900,-99.71586289
499960000,-99.72489799
499960100,-99.61201953
499960200,-99.53375316
499960300,-99.57753696
499960400,-99.64036607
499960500,-99.59124798
499960600,-99.45958513
499960700,-99.34887295
499960800,-99.30596338
499960900,-99.26961504
499961000,-99.14808524
499961100,-98.93162822
499961200,-98.74669072
499961300,-98.69976733
499961400,-98.77142145
499961500,-98.90296051
499961600,-99.04505617
499961700,-99.12798466
499961800,-99.1572815
499961900,-99.13740517
499962000,-99.11676032
499962100,-99.12877012
499962200,-99.14558667
499962300,-99.1140041
499962400,-98.98704008
499962500,-98.79735954
499962600,-98.60944587
499962700,-98.49391121
499962800,-98.50127385
499962900,-98.70347577
499963000,-99.1226274
499963100,-99.67762572
499963200,-100.2166006
499963300,-100.5648303
499963400,-100.6265515
499963500,-100.4794387
499963600,-100.3256144
499963700,-100.2586916
499963800,-100.2840101
499963900,-100.3259072
499964000,-100.3246129
499964100,-100.1962447
499964200,-99.9363378
499964300,-99.61543593
499964400,-99.37334303
499964500,-99.33686801
499964600,-99.52203754
499964700,-99.80348142
499964800,-100.0081988
499964900,-100.0134789
499965000,-99.81941966
499965100,-99.58947863
499965200,-99.49037939
499965300,-99.58851056
499965400,-99.79784542
499965500,-99.93720533
499965600,-99.89230699
499965700,-99.67306639
499965800,-99.41958621
499965900,-99.17351345
499966000,-98.91609034
499966100,-98.60404244
499966200,-98.26651379
499966300,-98.02732877
499966400,-97.97651974
499966500,-98.14222838
499966600,-98.41775888
499966700,-98.65912962
499966800,-98.80096678
499966900,-98.89408839
499967000,-99.00866171
499967100,-99.13722476
499967200,-99.20068
499967300,-99.20424344
499967400,-99.17983673
499967500,-99.15709716
499967600,-99.08334772
499967700,-98.90333781
499967800,-98.68436723
499967900,-98.54644648
499968000,-98.50281877
499968100,-98.51026251
499968200,-98.52609961
499968300,-98.58149366
499968400,-98.70646732
499968500,-98.83284221
499968600,-98.83889413
499968700,-98.65386978
499968800,-98.40785684
499968900,-98.27831976
499969000,-98.35613531
499969100,-98.55677393
499969200,-98.67059779
499969300,-98.56975624
499969400,-98.38603119
499969500,-98.33590574
499969600,-98.53968197
499969700,-98.94022494
499969800,-99.32792606
499969900,-99.45041026
499970000,-99.25339602
499970100,-98.93211651
499970200,-98.74944135
499970300,-98.86678324
499970400,-99.21417387
499970500,-99.59368076
499970600,-99.78107788
499970700,-99.74046363
499970800,-99.5533388
499970900,-99.28701157
499971000,-98.99457428
499971100,-98.72510506
499971200,-98.55010056
499971300,-98.54618903
499971400,-98.76262066
499971500,-99.20233765
499971600,-99.77979306
499971700,-100.289427
499971800,-100.5205432
499971900,-100.4656356
499972000,-100.2335899
499972100,-99.99831711
499972200,-99.81759681
499972300,-99.66735972
499972400,-99.47235298
499972500,-99.20465547
499972600,-98.9291412
499972700,-98.75230721
499972800,-98.76758709
499972900,-98.98940123
499973000,-99.32384394
499973100,-99.67997122
499973200,-100.0401774
499973300,-100.4158159
499973400,-100.7391573
499973500,-100.9545222
499973600,-101.0673289
499973700,-101.1213854
499973800,-101.0148115
499973900,-100.5903755
499974000,-99.83794493
499974100,-99.03158881
499974200,-98.45489286
499974300,-98.22262365
499974400,-98.30803242
499974500,-98.57309714
499974600,-98.84421214
499974700,-98.91914152
499974800,-98.73154221
499974900,-98.37210932
499975000,-98.02138862
499975100,-97.80811968
499975200,-97.7864136
499975300,-97.92923134
499975400,-98.18251186
499975500,-98.49195364
499975600,-98.80960144
499975700,-99.06034811
499975800,-99.17402505
499975900,-99.12080244
499976000,-98.96158199
499976100,-98.79941883
499976200,-98.73766294
499976300,-98.85810235
499976400,-99.12172265
499976500,-99.34231358
499976600,-99.37458972
499976700,-99.18651838
499976800,-98.92215674
499976900,-98.76729508
499977000,-98.7198276
499977100,-98.63900616
499977200,-98.51186316
499977300,-98.49699789
499977400,-98.69123567
499977500,-99.00880744
499977600,-99.40476026
499977700,-99.89290771
499977800,-100.3050822
499977900,-100.2809229
499978000,-99.97162703
499978100,-99.7139829
499978200,-99.58222215
499978300,-99.4380609
499978400,-99.17478381
499978500,-98.83843108
499978600,-98.61337793
499978700,-98.57701025
499978800,-98.66731996
499978900,-98.74172057
499979000,-98.77415005
499979100,-98.93152109
499979200,-99.0750904
499979300,-98.84973313
499979400,-98.50425011
499979500,-98.51413031
499979600,-98.73678552
499979700,-98.93443956
499979800,-99.3168834
499979900,-99.51586037
499980000,-98.76521349
499980100,-97.65252093
499980200,-97.30312906
499980300,-97.5058068
499980400,-97.40415897
499980500,-96.69006846
499980600,-96.34348756
499980700,-96.3750478
499980800,-96.24833955
499980900,-95.72478206
499981000,-95.27097405
499981100,-94.71434642
499981200,-93.87204871
499981300,-93.18150507
499981400,-92.94591515
499981500,-92.81509132
499981600,-92.23658789
499981700,-91.35785313
499981800,-90.72983483
499981900,-90.23263877
499982000,-89.74167487
499982100,-89.356798
499982200,-89.00980583
499982300,-88.40887298
499982400,-87.57862322
499982500,-86.90995528
499982600,-86.40343714
499982700,-85.94276465
499982800,-85.51388904
499982900,-85.14192618
499983000,-84.65797289
499983100,-83.94130124
499983200,-83.2428308
499983300,-82.77430613
499983400,-82.44556306
499983500,-82.00897451
499983600,-81.39398452
499983700,-80.77356612
499983800,-80.26620759
499983900,-79.85319314
499984000,-79.42818139
499984100,-78.9131345
499984200,-78.35859049
499984300,-77.88150728
499984400,-77.48978268
499984500,-77.07353366
499984600,-76.56525451
499984700,-76.051761
499984800,-75.60603105
499984900,-75.19012741
499985000,-74.73838523
499985100,-74.26270521
499985200,-73.81534209
499985300,-73.40157653
499985400,-73.00949764
499985500,-72.59845143
499985600,-72.16414366
499985700,-71.73147479
499985800,-71.31937531
499985900,-70.92458257
499986000,-70.51711832
499986100,-70.10211962
499986200,-69.70429868
499986300,-69.32594381
499986400,-68.96599777
499986500,-68.60059773
499986600,-68.21755123
499986700,-67.82661354
499986800,-67.43473956
499986900,-67.06668382
499987000,-66.71672417
499987100,-66.36227059
499987200,-66.01075285
499987300,-65.66289817
499987400,-65.31924603
499987500,-64.98159966
499987600,-64.64074974
499987700,-64.29794565
499987800,-63.96840063
499987900,-63.63267925
499988000,-63.28714836
499988100,-62.95133433
499988200,-62.6336967
499988300,-62.33451534
499988400,-62.04574006
499988500,-61.74750479
499988600,-61.43446687
499988700,-61.12484373
499988800,-60.82984548
499988900,-60.53936389
499989000,-60.24903055
499989100,-59.96069166
499989200,-59.66957921
499989300,-59.37987306
499989400,-59.09976343
499989500,-58.82524883
499989600,-58.55366196
499989700,-58.28136627
499989800,-58.01829869
499989900,-57.75790437
499990000,-57.49950576
499990100,-57.24462525
499990200,-56.99496618
499990300,-56.74237305
499990400,-56.49058685
499990500,-56.24271261
499990600,-56.00616728
499990700,-55.77027929
499990800,-55.53524249
499990900,-55.29846582
499991000,-55.07196739
499991100,-54.84914637
499991200,-54.62686284
499991300,-54.40217005
499991400,-54.18138184
499991500,-53.96476019
499991600,-53.75023595
499991700,-53.53884773
499991800,-53.33002863
499991900,-53.13007495
499992000,-52.93463775
499992100,-52.74046768
499992200,-52.54571612
499992300,-52.34757604
499992400,-52.15383914
499992500,-51.96588393
499992600,-51.78163699
499992700,-51.60224192
499992800,-51.42478227
499992900,-51.24976294
499993000,-51.0773228
499993100,-50.90486928
499993200,-50.73494853
499993300,-50.56870805
499993400,-50.40542314
499993500,-50.24479228
499993600,-50.08864649
499993700,-49.93389865
499993800,-49.7812084
499993900,-49.63176178
499994000,-49.48476645
499994100,-49.33927935
499994200,-49.19668334
499994300,-49.06018969
499994400,-48.92483134
499994500,-48.79158422
499994600,-48.66109233
499994700,-48.53263902
499994800,-48.4069175
499994900,-48.28349451
499995000,-48.16472379
499995100,-48.04712587
499995200,-47.93126851
499995300,-47.8178071
499995400,-47.70594937
499995500,-47.59609122
499995600,-47.48859262
499995700,-47.38322609
499995800,-47.28010339
499995900,-47.1817487
499996000,-47.08631829
499996100,-46.9935114
499996200,-46.90345829
499996300,-46.81536733
499996400,-46.729575
499996500,-46.64615863
499996600,-46.56447556
499996700,-46.48565719
499996800,-46.40946033
499996900,-46.33565813
499997000,-46.26300925
499997100,-46.19477434
499997200,-46.12870792
499997300,-46.06475477
499997400,-46.00370571
499997500,-45.945202
499997600,-45.88939587
499997700,-45.83562483
499997800,-45.7842308
499997900,-45.7350824
499998000,-45.68810306
499998100,-45.64376378
499998200,-45.60191453
499998300,-45.56191305
499998400,-45.52424852
499998500,-45.48867447
499998600,-45.45496812
499998700,-45.42384625
499998800,-45.39512304
499998900,-45.36921016
499999000,-45.34612641
499999100,-45.32594624
499999200,-45.30876496
499999300,-45.29437544
499999400,-45.28213623
499999500,-45.27223669
499999600,-45.26435453
499999700,-45.25845165
499999800,-45.25475508
499999900,-45.25264507
500000000,-45.25270364
500000100,-45.25508224
500000200,-45.26013706
500000300,-45.26839681
500000400,-45.27923936
500000500,-45.29241959
500000600,-45.30786506
500000700,-45.32538511
500000800,-45.34543305
500000900,-45.36751882
500001000,-45.39196094
500001100,-45.41919303
500001200,-45.44902832
500001300,-45.48173087
500001400,-45.5167161
500001500,-45.55423091
500001600,-45.59440544
500001700,-45.63693607
500001800,-45.68184384
500001900,-45.72842874
500002000,-45.77723843
500002100,-45.82766931
500002200,-45.88077833
500002300,-45.93633826
500002400,-45.99459378
500002500,-46.05558554
500002600,-46.11904855
500002700,-46.18545506
500002800,-46.25286311
500002900,-46.32356851
500003000,-46.39759722
500003100,-46.47360551
500003200,-46.55174445
500003300,-46.63240991
500003400,-46.71599712
500003500,-46.80194064
500003600,-46.89111056
500003700,-46.98269548
500003800,-47.0762054
500003900,-47.1714289
500004000,-47.26832798
500004100,-47.36686569
500004200,-47.46947784
500004300,-47.57426335
500004400,-47.68178265
500004500,-47.7916376
500004600,-47.90392399
500004700,-48.01851196
500004800,-48.1362142
500004900,-48.2569988
500005000,-48.38037214
500005100,-48.509218
500005200,-48.63924526
500005300,-48.76999964
500005400,-48.90224256
500005500,-49.03733637
500005600,-49.17572802
500005700,-49.31451066
500005800,-49.46157146
500005900,-49.60869216
500006000,-49.75684899
500006100,-49.906592
500006200,-50.05858859
500006300,-50.21259276
500006400,-50.36765078
500006500,-50.52895757
500006600,-50.69229745
500006700,-50.85878011
500006800,-51.02928326
500006900,-51.202303
500007000,-51.37575047
500007100,-51.55680145
500007200,-51.7404006
500007300,-51.926223
500007400,-52.1140253
500007500,-52.29920387
500007600,-52.48955692
500007700,-52.68198953
500007800,-52.87875487
500007900,-53.08215375
500008000,-53.28793039
500008100,-53.49653023
500008200,-53.70712288
500008300,-53.9163343
500008400,-54.12589482
500008500,-54.33386051
500008600,-54.54900377
500008700,-54.76972404
500008800,-54.99700961
500008900,-55.22959348
500009000,-55.46957578
500009100,-55.71661624
500009200,-55.95891905
500009300,-56.19747835
500009400,-56.43367915
500009500,-56.67863094
500009600,-56.92527835
500009700,-57.1741115
500009800,-57.42147854
500009900,-57.67892119
500010000,-57.9406589
500010100,-58.20541248
500010200,-58.47623389
500010300,-58.75499645
500010400,-59.03295734
500010500,-59.30944522
500010600,-59.59073943
500010700,-59.87285077
500010800,-60.15474254
500010900,-60.43817194
500011000,-60.73490054
500011100,-61.03413629
500011200,-61.3282859
500011300,-61.63049378
500011400,-61.93324813
500011500,-62.23949183
500011600,-62.55762403
500011700,-62.88702453
500011800,-63.2082661
500011900,-63.51660471
500012000,-63.83073666
500012100,-64.15378459
500012200,-64.49496699
500012300,-64.85354577
500012400,-65.20328841
500012500,-65.54740609
500012600,-65.90186552
500012700,-66.25523399
500012800,-66.60501159
500012900,-66.95302158
500013000,-67.29305927
500013100,-67.64926806
500013200,-68.02493652
500013300,-68.41073361
500013400,-68.80511107
500013500,-69.19404427
500013600,-69.58177609
500013700,-69.98612471
500013800,-70.39782593
500013900,-70.80719853
500014000,-71.17107098
500014100,-71.50345429
500014200,-71.87392315
500014300,-72.32609652
500014400,-72.82629927
500014500,-73.28610209
500014600,-73.67888282
500014700,-74.06124793
500014800,-74.49356871
500014900,-74.98070326
500015000,-75.46889838
500015100,-75.90176822
500015200,-76.2781717
500015300,-76.68417316
500015400,-77.1813879
500015500,-77.71299412
500015600,-78.19850867
500015700,-78.6650186
500015800,-79.165526
500015900,-79.65171864
500016000,-80.04973395
500016100,-80.45273073
500016200,-80.99937277
500016300,-81.64320621
500016400,-82.22248699
500016500,-82.65981906
500016600,-83.04377769
500016700,-83.56007039
500016800,-84.17969011
500016900,-84.75753921
500017000,-85.24778885
500017100,-85.77405211
500017200,-86.32726531
500017300,-86.74617902
500017400,-87.17987432
500017500,-87.89665547
500017600,-88.75003412
500017700,-89.24161734
500017800,-89.44801929
500017900,-89.88148888
500018000,-90.63883338
500018100,-91.37473134
500018200,-91.8445702
500018300,-92.27532191
500018400,-92.70986391
500018500,-93.16232692
500018600,-93.79041021
500018700,-94.4951668
500018800,-94.6913566
500018900,-94.90816759
500019000,-95.86678511
500019100,-96.80344468
500019200,-96.74588899
500019300,-96.84853296
500019400,-97.81350987
500019500,-98.26844
500019600,-97.91168582
500019700,-97.95850684
500019800,-98.3119485
500019900,-98.32473086
500020000,-98.31703772
500020100,-98.54131457
500020200,-98.78994024
500020300,-98.6557267
500020400,-98.45190481
500020500,-98.42312134
500020600,-98.53358504
500020700,-98.76261453
500020800,-99.09387124
500020900,-99.31533181
500021000,-99.16216941
500021100,-99.03490525
500021200,-99.25274787
500021300,-99.58985426
500021400,-99.64641438
500021500,-99.51417322
500021600,-99.44726675
500021700,-99.43312895
500021800,-99.32273782
500021900,-99.14715039
500022000,-99.04425937
500022100,-99.00424382
500022200,-98.940318
500022300,-98.85755216
500022400,-98.74755439
500022500,-98.5984994
500022600,-98.45739871
500022700,-98.33528083
500022800,-98.26510867
500022900,-98.32162198
500023000,-98.50087069
500023100,-98.71079649
500023200,-98.91110513
500023300,-99.09466656
500023400,-99.32498094
500023500,-99.69292142
500023600,-100.2314329
500023700,-100.8626801
500023800,-101.4450078
500023900,-101.726366
500024000,-101.6029088
500024100,-101.1729915
500024200,-100.6311206
500024300,-100.0757523
500024400,-99.54409764
500024500,-99.1106054
500024600,-98.85383248
500024700,-98.80514372
500024800,-98.90809739
500024900,-99.03617758
500025000,-99.06318936
500025100,-98.95332853
500025200,-98.77225388
500025300,-98.55758137
500025400,-98.37717578
500025500,-98.29434267
500025600,-98.3551476
500025700,-98.51606774
500025800,-98.74096327
500025900,-99.00170156
500026000,-99.28275142
500026100,-99.5245709
500026200,-99.66988212
500026300,-99.68087134
500026400,-99.61240609
500026500,-99.50450651
500026600,-99.30247878
500026700,-99.0577169
500026800,-98.87368172
500026900,-98.86517581
500027000,-99.03445835
500027100,-99.23081349
500027200,-99.23420817
500027300,-99.00399134
500027400,-98.73693265
500027500,-98.63651085
500027600,-98.77654181
500027700,-99.10008163
500027800,-99.51827469
500027900,-99.94704792
500028000,-100.3943519
500028100,-100.7602969
500028200,-100.872368
500028300,-100.6300666
500028400,-100.1287903
500028500,-99.64769262
500028600,-99.38652135
500028700,-99.40872262
500028800,-99.60800427
500028900,-99.79173811
500029000,-99.80903301
500029100,-99.69524852
500029200,-99.57607627
500029300,-99.50913831
500029400,-99.41256633
500029500,-99.16309405
500029600,-98.83702885
500029700,-98.59949298
500029800,-98.58050634
500029900,-98.7810251
500030000,-99.04813686
500030100,-99.2106231
500030200,-99.23746042
500030300,-99.21540254
500030400,-99.18640392
500030500,-99.17954255
500030600,-99.19666823
500030700,-99.26846932
500030800,-99.43349478
500030900,-99.7342284
500031000,-100.0857016
500031100,-100.267569
500031200,-100.1033921
500031300,-99.7571894
500031400,-99.55525879
500031500,-99.65563213
500031600,-99.89714941
500031700,-100.0558136
500031800,-100.0644387
500031900,-100.0134953
500032000,-99.95780473
500032100,-99.82271324
500032200,-99.65356292
500032300,-99.54874047
500032400,-99.59931332
500032500,-99.7542717
500032600,-99.89981709
500032700,-99.94401989
500032800,-99.83133508
500032900,-99.52418031
500033000,-99.03105855
500033100,-98.53608205
500033200,-98.23763795
500033300,-98.21483691
500033400,-98.40942909
500033500,-98.65293769
500033600,-98.7486992
500033700,-98.70510275
500033800,-98.69156587
500033900,-98.84832188
500034000,-99.11802557
500034100,-99.3300234
500034200,-99.35032436
500034300,-99.23837145
500034400,-99.11668446
500034500,-99.03412629
500034600,-98.98022287
500034700,-98.96603795
500034800,-98.98640404
500034900,-99.06213399
500035000,-99.24664616
500035100,-99.5192552
500035200,-99.79689989
500035300,-99.9489255
500035400,-99.95289586
500035500,-99.88604248
500035600,-99.8083058
500035700,-99.65067668
500035800,-99.34486061
500035900,-98.92045739
500036000,-98.53081113
500036100,-98.30410776
500036200,-98.28115695
500036300,-98.40649501
500036400,-98.5867873
500036500,-98.74165009
500036600,-98.81209728
500036700,-98.81670793
500036800,-98.78435028
500036900,-98.68990678
500037000,-98.49806635
500037100,-98.26966318
500037200,-98.17987426
500037300,-98.37512618
500037400,-98.88338196
500037500,-99.51853467
500037600,-99.92838665
500037700,-99.83706438
500037800,-99.31952901
500037900,-98.76081661
500038000,-98.47381445
500038100,-98.5654662
500038200,-98.97659881
500038300,-99.54342314
500038400,-100.0866466
500038500,-100.4867877
500038600,-100.7402863
500038700,-100.8981269
500038800,-100.9390894
500038900,-100.8218293
500039000,-100.5641299
500039100,-100.2970134
500039200,-100.1286101
500039300,-100.0215778
500039400,-99.87525514
500039500,-99.66729776
500039600,-99.48681846
500039700,-99.413739
500039800,-99.41210723
500039900,-99.32822902
500040000,-99.10859
500040100,-98.85764639
500040200,-98.70507317
500040300,-98.72959253
500040400,-98.91986917
500040500,-99.18251507
500040600,-99.36903824
500040700,-99.3723626
500040800,-99.21183542
500040900,-98.99158545
500041000,-98.80831829
500041100,-98.67467034
500041200,-98.58617317
500041300,-98.54786763
500041400,-98.59801192
500041500,-98.73371767
500041600,-98.92910951
500041700,-99.10763648
500041800,-99.21027085
500041900,-99.20618229
500042000,-99.11815735
500042100,-99.01588091
500042200,-98.98229052
500042300,-99.02433976
500042400,-99.10789104
500042500,-99.19424168
500042600,-99.32384033
500042700,-99.56039599
500042800,-99.9007605
500042900,-100.1860256
500043000,-100.3071831
500043100,-100.2668502
500043200,-100.1976473
500043300,-100.1868321
500043400,-100.2249654
500043500,-100.2225285
500043600,-100.1438921
500043700,-99.92770496
500043800,-99.56500605
500043900,-99.12098037
500044000,-98.75681293
500044100,-98.61974524
500044200,-98.68437395
500044300,-98.78810973
500044400,-98.79644662
500044500,-98.73040102
500044600,-98.69546749
500044700,-98.79045346
500044800,-98.99956263
500044900,-99.21804569
500045000,-99.352551
500045100,-99.41205003
500045200,-99.46508666
500045300,-99.55277608
500045400,-99.58913408
500045500,-99.50209755
500045600,-99.25991671
500045700,-98.91728262
500045800,-98.57780836
500045900,-98.33073498
500046000,-98.23250974
500046100,-98.26821969
500046200,-98.39355255
500046300,-98.5647957
500046400,-98.73188953
500046500,-98.88649786
500046600,-99.06515347
500046700,-99.29479456
500046800,-99.557203
500046900,-99.78505539
500047000,-99.8767337
500047100,-99.82806662
500047200,-99.76449287
500047300,-99.81338805
500047400,-99.92051862
500047500,-99.91893237
500047600,-99.70912072
500047700,-99.38844184
500047800,-99.15421616
500047900,-99.10226817
500048000,-99.24850537
500048100,-99.51969136
500048200,-99.81046651
500048300,-100.0921935
500048400,-100.3737054
500048500,-100.5725911
500048600,-100.5194431
500048700,-100.1832258
500048800,-99.70397671
500048900,-99.2519003
500049000,-98.89891199
500049100,-98.60207077
500049200,-98.37655613
500049300,-98.28458313
500049400,-98.37944602
500049500,-98.61936345
500049600,-98.81877042
500049700,-98.83114724
500049800,-98.65411905
500049900,-98.45357884
500050000,-98.367987
