Swept SA,
A.14.62,N9000A
503 EP4 ,01
Segment,0
Number of Points,1001
Sweep Time,0.0102
Start Frequency,499950000
Stop Frequency,500050000
Average Count,50
Average Type,Power(RMS)
RBW,10000
RBW Filter,Gaussian
RBW Filter BW,3dB
VBW,1000
Sweep Type,Swept
X Axis Scale,Lin
PreAmp State,Off
PreAmp Band,Low
Trigger Source,Free
Trigger Level,1.2
Trigger Slope,Positive
Trigger Delay,0
Phase Noise Optimization,Wide
Swept If Gain,Low
FFT If Gain,Autorange
RF Coupling,AC
FFT Width,411900
Ext Ref,10000000
Input,RF
RF Calibrator,Off
Attenuation,10
Ref Level Offset,0
External Gain,0
Trace Type,Average
Detector,Average
Trace Math,Off
Trace Math Oper1,Trace5
Trace Math Oper2,Trace6
Trace Math Offset,0
Normalize,Off
Trace Name,Trace1
X Axis Units,Hz
Y Axis Units,dBm
DATA,
499950000,-100.483928
499950100,-100.6384309
499950200,-100.5407393
499950300,-100.2747394
499950400,-100.0266579
499950500,-99.92159131
499950600,-99.9219759
499950700,-99.91157251
499950800,-99.81082856
499950900,-99.68990119
499951000,-99.62695068
499951100,-99.59677352
499951200,-99.53166092
499951300,-99.44185116
499951400,-99.37371102
499951500,-99.3707535
499951600,-99.40549319
499951700,-99.41390878
499951800,-99.35601169
499951900,-99.27985911
499952000,-99.27372026
499952100,-99.41897741
499952200,-99.68459538
499952300,-99.90906425
499952400,-99.89751876
499952500,-99.66285185
499952600,-99.40357627
499952700,-99.2746596
499952800,-99.29682294
499952900,-99.41856488
499953000,-99.57859828
499953100,-99.69094691
499953200,-99.72656811
499953300,-99.72880101
499953400,-99.79698085
499953500,-100.0033224
499953600,-100.3205976
499953700,-100.5867997
499953800,-100.6016864
499953900,-100.3516546
499954000,-100.0596587
499954100,-99.96299896
499954200,-100.1287403
499954300,-100.430957
499954400,-100.7132245
499954500,-100.8919668
499954600,-100.9940584
499954700,-100.9624396
499954800,-100.7181205
499954900,-100.2311553
499955000,-99.6490215
499955100,-99.20050379
499955200,-99.04649342
499955300,-99.20261021
499955400,-99.53819887
499955500,-99.83610625
499955600,-99.97539982
499955700,-99.98396567
499955800,-99.94235607
499955900,-99.89103883
499956000,-99.7987539
499956100,-99.660926
499956200,-99.48479673
499956300,-99.25523621
499956400,-99.0347877
499956500,-98.93473561
499956600,-98.99331799
499956700,-99.13417518
499956800,-99.20853663
499956900,-99.11753877
499957000,-98.96711573
499957100,-98.92522896
499957200,-99.01479789
499957300,-99.10233619
499957400,-99.1147529
499957500,-99.12195195
499957600,-99.23278935
499957700,-99.4218902
499957800,-99.49914505
499957900,-99.39855726
499958000,-99.25306504
499958100,-99.27832714
499958200,-99.53456295
499958300,-99.95757882
499958400,-100.352577
499958500,-100.5585786
499958600,-100.5310393
499958700,-100.3348228
499958800,-100.1444453
499958900,-100.0614639
499959000,-100.0484138
499959100,-100.0188913
499959200,-99.89322086
499959300,-99.73428812
499959400,-99.64179651
499959500,-99.68460613
499959600,-99.8507537
499959700,-100.0517391
499959800,-100.1865204
499959900,-100.174209
499960000,-99.94946113
499960100,-99.58824113
499960200,-99.1989779
499960300,-98.93476857
499960400,-98.86502792
499960500,-98.96912959
499960600,-99.12314701
499960700,-99.2445434
499960800,-99.28488519
499960900,-99.28855989
499961000,-99.30378209
499961100,-99.34896929
499961200,-99.43254686
499961300,-99.53128759
499961400,-99.60548159
499961500,-99.60014915
499961600,-99.50024502
499961700,-99.34780822
499961800,-99.19171953
499961900,-99.06254687
499962000,-98.9722889
499962100,-98.96775427
499962200,-99.09754286
499962300,-99.33275416
499962400,-99.61335722
499962500,-99.81023852
499962600,-99.90980191
499962700,-99.96422493
499962800,-100.0580811
499962900,-100.178682
499963000,-100.2046489
499963100,-99.98080049
499963200,-99.56092072
499963300,-99.16411746
499963400,-98.98013475
499963500,-99.00753803
499963600,-99.08611633
499963700,-99.04711187
499963800,-98.8951462
499963900,-98.74571473
499964000,-98.75386262
499964100,-99.02269077
499964200,-99.46787466
499964300,-99.83423704
499964400,-99.85950234
499964500,-99.58849865
499964600,-99.26477493
499964700,-98.96758769
499964800,-98.64966713
499964900,-98.31392659
499965000,-98.10152443
499965100,-98.20239551
499965200,-98.64795766
499965300,-99.26625586
499965400,-99.7089594
499965500,-99.69619982
499965600,-99.30553376
499965700,-98.80417943
499965800,-98.41756214
499965900,-98.26607091
499966000,-98.37507125
499966100,-98.68253362
499966200,-99.06327035
499966300,-99.34719492
499966400,-99.4363474
499966500,-99.35648976
499966600,-99.23864345
499966700,-99.2057322
499966800,-99.27179741
499966900,-99.36360461
499967000,-99.39176925
499967100,-99.33944231
499967200,-99.26985932
499967300,-99.21424959
499967400,-99.11564605
499967500,-98.94679803
499967600,-98.77750651
499967700,-98.72459291
499967800,-98.82061359
499967900,-98.97007223
499968000,-99.02585777
499968100,-98.89005532
499968200,-98.64568063
499968300,-98.45285978
499968400,-98.41222675
499968500,-98.50103818
499968600,-98.63122108
499968700,-98.71891243
499968800,-98.82320878
499968900,-99.03492091
499969000,-99.36920949
499969100,-99.77142427
499969200,-100.1080032
499969300,-100.2824841
499969400,-100.2225693
499969500,-99.95118965
499969600,-99.62417109
499969700,-99.36834471
499969800,-99.2784901
499969900,-99.35896354
499970000,-99.57473022
499970100,-99.79873915
499970200,-99.92929854
499970300,-100.0132642
499970400,-100.1345031
499970500,-100.2534398
499970600,-100.2743623
499970700,-100.1457357
499970800,-99.95535258
499970900,-99.85777106
499971000,-99.92538096
499971100,-100.1477496
499971200,-100.3791307
499971300,-100.4601095
499971400,-100.3164209
499971500,-100.008412
499971600,-99.68456507
499971700,-99.43587479
499971800,-99.28634268
499971900,-99.22181002
499972000,-99.21185592
499972100,-99.17504195
499972200,-99.05224194
499972300,-98.89005145
499972400,-98.79705004
499972500,-98.82357297
499972600,-98.92421809
499972700,-98.98395098
499972800,-98.88087236
499972900,-98.65670538
499973000,-98.49927508
499973100,-98.54612121
499973200,-98.80913344
499973300,-99.18147408
499973400,-99.45654611
499973500,-99.51552486
499973600,-99.42301966
499973700,-99.32668489
499973800,-99.32178163
499973900,-99.43036057
499974000,-99.64257051
499974100,-99.83436657
499974200,-99.9719788
499974300,-100.0372383
499974400,-100.0557393
499974500,-100.0246717
499974600,-99.9327623
499974700,-99.70618781
499974800,-99.34418308
499974900,-98.94975821
499975000,-98.63913122
499975100,-98.48681729
499975200,-98.50804269
499975300,-98.68467967
499975400,-98.94498229
499975500,-99.22432837
499975600,-99.44902684
499975700,-99.54616356
499975800,-99.43149461
499975900,-99.13824745
499976000,-98.80883279
499976100,-98.62012548
499976200,-98.63908029
499976300,-98.81908163
499976400,-99.10024491
499976500,-99.40539356
499976600,-99.69601566
499976700,-99.94850448
499976800,-100.150914
499976900,-100.2938547
499977000,-100.3800141
499977100,-100.4182072
499977200,-100.3613307
499977300,-100.1644759
499977400,-99.91690009
499977500,-99.70371808
499977600,-99.5435132
499977700,-99.38403188
499977800,-99.24258748
499977900,-99.21206899
499978000,-99.31403718
499978100,-99.45526204
499978200,-99.51675873
499978300,-99.48037094
499978400,-99.48256166
499978500,-99.5930516
499978600,-99.78889994
499978700,-99.92484744
499978800,-99.86885038
499978900,-99.71014348
499979000,-99.70565029
499979100,-99.91319504
499979200,-100.1058645
499979300,-100.0304654
499979400,-99.77061711
499979500,-99.58632956
499979600,-99.55585259
499979700,-99.55492883
499979800,-99.46040073
499979900,-99.28368567
499980000,-99.08331707
499980100,-98.97678862
499980200,-99.16869514
499980300,-99.60411346
499980400,-99.94318497
499980500,-99.98281831
499980600,-99.91880692
499980700,-99.82990315
499980800,-99.68123016
499980900,-99.60694574
499981000,-99.76868535
499981100,-99.99244598
499981200,-100.0146695
499981300,-99.90793956
499981400,-99.98385425
499981500,-100.2814509
499981600,-100.4347655
499981700,-100.2169264
499981800,-99.92344148
499981900,-99.78573591
499982000,-99.69782355
499982100,-99.4578802
499982200,-99.1271084
499982300,-98.95169253
499982400,-99.26511047
499982500,-99.90394496
499982600,-100.0364182
499982700,-99.21560629
499982800,-98.19610275
499982900,-97.6903479
499983000,-97.66955702
499983100,-97.95954723
499983200,-98.22913173
499983300,-98.30506008
499983400,-97.94215663
499983500,-97.21634485
499983600,-96.78862867
499983700,-96.98128238
499983800,-97.38811392
499983900,-97.1432494
499984000,-96.47634934
499984100,-96.08352124
499984200,-96.1982336
499984300,-96.29840538
499984400,-95.62582491
499984500,-94.3684911
499984600,-93.56623113
499984700,-93.71164119
499984800,-94.4058161
499984900,-94.54073744
499985000,-93.8110649
499985100,-93.05340946
499985200,-92.73451547
499985300,-92.43982186
499985400,-91.87209259
499985500,-91.33202216
499985600,-91.14934684
499985700,-91.17153121
499985800,-90.95620498
499985900,-90.46980337
499986000,-90.02297725
499986100,-89.76705348
499986200,-89.51843261
499986300,-89.1207917
499986400,-88.69166874
499986500,-88.3081247
499986600,-87.9157405
499986700,-87.54846013
499986800,-87.26865515
499986900,-87.01532021
499987000,-86.65917359
499987100,-86.23323519
499987200,-85.83299412
499987300,-85.49863306
499987400,-85.21885897
499987500,-84.96582713
499987600,-84.69055807
499987700,-84.33381477
499987800,-83.8889137
499987900,-83.44423874
499988000,-83.07782785
499988100,-82.79596591
499988200,-82.56385764
499988300,-82.31813106
499988400,-82.0160405
499988500,-81.67055599
499988600,-81.3469905
499988700,-81.08968013
499988800,-80.88845236
499988900,-80.68732393
499989000,-80.42727857
499989100,-80.08549424
499989200,-79.68475071
499989300,-79.28029909
499989400,-78.91909282
499989500,-78.62021926
499989600,-78.39117214
499989700,-78.22470024
499989800,-78.08777683
499989900,-77.91259442
499990000,-77.64266484
499990100,-77.28871736
499990200,-76.92160897
499990300,-76.60606162
499990400,-76.36742693
499990500,-76.17595892
499990600,-75.98636599
499990700,-75.78406362
499990800,-75.57589336
499990900,-75.36554705
499991000,-75.14598928
499991100,-74.9088158
499991200,-74.65856451
499991300,-74.40861956
499991400,-74.16574589
499991500,-73.93268851
499991600,-73.71356495
499991700,-73.51435789
499991800,-73.33304217
499991900,-73.1597058
499992000,-72.98196366
499992100,-72.79209204
499992200,-72.59308196
499992300,-72.39220153
499992400,-72.19723927
499992500,-72.00837943
499992600,-71.82456296
499992700,-71.64628685
499992800,-71.4749748
499992900,-71.30892126
499993000,-71.13875895
499993100,-70.95749696
499993200,-70.76524053
499993300,-70.57132366
499993400,-70.38991375
499993500,-70.22456924
499993600,-70.07394683
499993700,-69.92994754
499993800,-69.78665642
499993900,-69.64117931
499994000,-69.49457567
499994100,-69.34742316
499994200,-69.20167402
499994300,-69.06009919
499994400,-68.92650915
499994500,-68.80141886
499994600,-68.68107281
499994700,-68.55972463
499994800,-68.43474508
499994900,-68.3078754
499995000,-68.18492381
499995100,-68.07004701
499995200,-67.96211108
499995300,-67.85642372
499995400,-67.74804429
499995500,-67.63577327
499995600,-67.52218834
499995700,-67.4110604
499995800,-67.30519418
499995900,-67.20587446
499996000,-67.11171732
499996100,-67.02051807
499996200,-66.93203712
499996300,-66.84581797
499996400,-66.76195932
499996500,-66.680398
499996600,-66.60103828
499996700,-66.52237884
499996800,-66.44480171
499996900,-66.36882741
499997000,-66.2960134
499997100,-66.22744077
499997200,-66.16148283
499997300,-66.09670864
499997400,-66.03260566
499997500,-65.96972022
499997600,-65.91136182
499997700,-65.85902457
499997800,-65.81289309
499997900,-65.770659
499998000,-65.72902952
499998100,-65.68672746
499998200,-65.64390382
499998300,-65.60275802
499998400,-65.56515429
499998500,-65.53083014
499998600,-65.49884773
499998700,-65.46795372
499998800,-65.43777081
499998900,-65.41003375
499999000,-65.38602735
499999100,-65.36688273
499999200,-65.35305082
499999300,-65.34289519
499999400,-65.33493911
499999500,-65.32746095
499999600,-65.31998016
499999700,-65.31242966
499999800,-65.30581225
499999900,-65.30059722
500000000,-65.29799203
500000100,-65.29842734
500000200,-65.30089115
500000300,-65.30544282
500000400,-65.31249164
500000500,-65.3220715
500000600,-65.33465244
500000700,-65.35168332
500000800,-65.37243825
500000900,-65.39632745
500001000,-65.42179016
500001100,-65.44822774
500001200,-65.47569799
500001300,-65.50514227
500001400,-65.53718085
500001500,-65.57257076
500001600,-65.61093748
500001700,-65.65193594
500001800,-65.69473511
500001900,-65.73942852
500002000,-65.78648683
500002100,-65.83567209
500002200,-65.88856236
500002300,-65.94612164
500002400,-66.00916278
500002500,-66.07739015
500002600,-66.14893114
500002700,-66.22149847
500002800,-66.29355119
500002900,-66.36528163
500003000,-66.43793652
500003100,-66.51424402
500003200,-66.59502338
500003300,-66.68025606
500003400,-66.76724049
500003500,-66.85318848
500003600,-66.93495058
500003700,-67.01327544
500003800,-67.09079534
500003900,-67.17297236
500004000,-67.26190831
500004100,-67.35880848
500004200,-67.46313519
500004300,-67.57424372
500004400,-67.68872481
500004500,-67.80443445
500004600,-67.91785172
500004700,-68.02713627
500004800,-68.13615601
500004900,-68.25122326
500005000,-68.37826419
500005100,-68.5174835
500005200,-68.66547103
500005300,-68.81719729
500005400,-68.96683355
500005500,-69.11026084
500005600,-69.24490965
500005700,-69.36989716
500005800,-69.4880964
500005900,-69.60577547
500006000,-69.73160342
500006100,-69.87602086
500006200,-70.04131411
500006300,-70.22180176
500006400,-70.40492962
500006500,-70.57946654
500006600,-70.74498538
500006700,-70.90931243
500006800,-71.07855581
500006900,-71.24889573
500007000,-71.41037488
500007100,-71.56302041
500007200,-71.7183739
500007300,-71.89426032
500007400,-72.0955338
500007500,-72.31275772
500007600,-72.52629336
500007700,-72.72697099
500007800,-72.91482523
500007900,-73.09889356
500008000,-73.28464384
500008100,-73.47294336
500008200,-73.66508649
500008300,-73.86395738
500008400,-74.07288221
500008500,-74.29249452
500008600,-74.51914496
500008700,-74.746543
500008800,-74.97177072
500008900,-75.2027643
500009000,-75.45197813
500009100,-75.72808392
500009200,-76.0133211
500009300,-76.2737411
500009400,-76.48577936
500009500,-76.66287637
500009600,-76.85365577
500009700,-77.0988173
500009800,-77.39744624
500009900,-77.70824136
500010000,-77.99286509
500010100,-78.23463926
500010200,-78.44585991
500010300,-78.64422593
500010400,-78.85191286
500010500,-79.10119264
500010600,-79.41367379
500010700,-79.78243574
500010800,-80.14449249
500010900,-80.45864915
500011000,-80.73785312
500011100,-81.03275876
500011200,-81.35845991
500011300,-81.68890992
500011400,-81.98693949
500011500,-82.24250481
500011600,-82.48823785
500011700,-82.76983258
500011800,-83.11849251
500011900,-83.50239585
500012000,-83.85587439
500012100,-84.1375708
500012200,-84.37373349
500012300,-84.63849087
500012400,-85.01178685
500012500,-85.51306192
500012600,-86.02998789
500012700,-86.38311705
500012800,-86.53933113
500012900,-86.64504341
500013000,-86.84267897
500013100,-87.19619625
500013200,-87.6265803
500013300,-88.03589937
500013400,-88.39537532
500013500,-88.73918652
500013600,-89.15245583
500013700,-89.68963835
500013800,-90.1515887
500013900,-90.35132224
500014000,-90.36601809
500014100,-90.60707766
500014200,-91.16041488
500014300,-91.923356
500014400,-92.49812591
500014500,-92.64553651
500014600,-92.44050598
500014700,-92.41369466
500014800,-93.06859718
500014900,-94.3174773
500015000,-95.18199631
500015100,-95.04034843
500015200,-94.58706344
500015300,-94.63699077
500015400,-95.32606023
500015500,-96.25947879
500015600,-96.63902024
500015700,-96.3510229
500015800,-96.07834373
500015900,-96.16474405
500016000,-96.6199353
500016100,-97.16643441
500016200,-97.53825071
500016300,-97.601372
500016400,-97.70158001
500016500,-97.84299255
500016600,-97.91642288
500016700,-98.14132756
500016800,-98.37288994
500016900,-98.21207123
500017000,-97.82227429
500017100,-97.80776544
500017200,-98.49525427
500017300,-99.39803263
500017400,-99.81742621
500017500,-99.67237828
500017600,-99.28373764
500017700,-98.91237934
500017800,-98.84248241
500017900,-99.18197361
500018000,-99.52651409
500018100,-99.58890931
500018200,-99.51961808
500018300,-99.62111174
500018400,-99.87388482
500018500,-100.1251378
500018600,-100.3211974
500018700,-100.4153495
500018800,-100.3117429
500018900,-100.1328829
500019000,-100.0406647
500019100,-99.99002702
500019200,-99.96362389
500019300,-100.033547
500019400,-100.0848236
500019500,-99.93649871
500019600,-99.69770894
500019700,-99.34857114
500019800,-98.87605627
500019900,-98.45717351
500020000,-98.3404479
500020100,-98.59020845
500020200,-99.0151142
500020300,-99.33624556
500020400,-99.439191
500020500,-99.37178622
500020600,-99.26403554
500020700,-99.23880817
500020800,-99.34557938
500020900,-99.46553953
500021000,-99.41987587
500021100,-99.22338262
500021200,-99.04909669
500021300,-98.96788422
500021400,-98.93158132
500021500,-98.87302651
500021600,-98.80725884
500021700,-98.79650468
500021800,-98.89224055
500021900,-99.09688183
500022000,-99.35689455
500022100,-99.61855657
500022200,-99.83452215
500022300,-99.8914425
500022400,-99.71478925
500022500,-99.32115781
500022600,-98.88725129
500022700,-98.5488361
500022800,-98.35168533
500022900,-98.26811203
500023000,-98.31442453
500023100,-98.51543857
500023200,-98.82202216
500023300,-99.12577463
500023400,-99.30305664
500023500,-99.33276334
500023600,-99.29089151
500023700,-99.28579136
500023800,-99.33525359
500023900,-99.42850863
500024000,-99.58818035
500024100,-99.85689715
500024200,-100.1863377
500024300,-100.4639428
500024400,-100.5555692
500024500,-100.44289
500024600,-100.2450318
500024700,-100.0285775
500024800,-99.81527782
500024900,-99.59739553
500025000,-99.41897825
500025100,-99.37106951
500025200,-99.48505408
500025300,-99.71614811
500025400,-99.90469879
500025500,-99.84625373
500025600,-99.51538941
500025700,-99.0701138
500025800,-98.7644559
500025900,-98.69718047
500026000,-98.81804573
500026100,-99.0140216
500026200,-99.23739745
500026300,-99.43533742
500026400,-99.58227038
500026500,-99.68579437
500026600,-99.76973785
500026700,-99.86673149
500026800,-100.0182936
500026900,-100.2115382
500027000,-100.4084364
500027100,-100.5301562
500027200,-100.4789159
500027300,-100.2332453
500027400,-99.83882889
500027500,-99.43042531
500027600,-99.11796339
500027700,-98.98128714
500027800,-99.08379752
500027900,-99.4361503
500028000,-99.94530413
500028100,-100.419648
500028200,-100.6014404
500028300,-100.3883169
500028400,-99.9393889
500028500,-99.50849669
500028600,-99.21323907
500028700,-99.06618874
500028800,-99.01748216
500028900,-99.04170956
500029000,-99.1372658
500029100,-99.26822126
500029200,-99.32086454
500029300,-99.26056426
500029400,-99.18612536
500029500,-99.23761162
500029600,-99.47569137
500029700,-99.77619303
500029800,-99.93332007
500029900,-99.84671494
500030000,-99.6078354
500030100,-99.34513114
500030200,-99.14112157
500030300,-99.01657158
500030400,-98.97644223
500030500,-98.98852479
500030600,-99.04035043
500030700,-99.10683637
500030800,-99.16410223
500030900,-99.18512387
500031000,-99.15067527
500031100,-99.0697026
500031200,-98.96636228
500031300,-98.87686318
500031400,-98.79759541
500031500,-98.72136049
500031600,-98.66558871
500031700,-98.6119852
500031800,-98.58569592
500031900,-98.63754436
500032000,-98.85634311
500032100,-99.24067393
500032200,-99.67521128
500032300,-99.97491173
500032400,-100.0488014
500032500,-99.97610588
500032600,-99.83996112
500032700,-99.68926762
500032800,-99.5569625
500032900,-99.45959371
500033000,-99.378101
500033100,-99.27158899
500033200,-99.12261258
500033300,-98.99968294
500033400,-99.02165199
500033500,-99.20197925
500033600,-99.36067852
500033700,-99.31865928
500033800,-99.07452771
500033900,-98.80616802
500034000,-98.69810383
500034100,-98.77331109
500034200,-98.9553321
500034300,-99.0683055
500034400,-98.97960857
500034500,-98.74253466
500034600,-98.55176516
500034700,-98.6192833
500034800,-98.98939222
500034900,-99.52157714
500035000,-99.96266383
500035100,-100.1626814
500035200,-100.1617325
500035300,-100.0760523
500035400,-99.90345554
500035500,-99.56527309
500035600,-99.1305374
500035700,-98.77761669
500035800,-98.63962895
500035900,-98.74680677
500036000,-99.04251182
500036100,-99.4446853
500036200,-99.83632504
500036300,-100.0984759
500036400,-100.1770827
500036500,-100.1510857
500036600,-100.1267454
500036700,-100.1156641
500036800,-100.0242219
500036900,-99.76558458
500037000,-99.44722381
500037100,-99.21726775
500037200,-99.15640055
500037300,-99.2414904
500037400,-99.35491166
500037500,-99.41369902
500037600,-99.45135465
500037700,-99.49532444
500037800,-99.55077155
500037900,-99.59375186
500038000,-99.61075898
500038100,-99.59626493
500038200,-99.53543493
500038300,-99.450708
500038400,-99.38416416
500038500,-99.40773146
500038600,-99.55610307
500038700,-99.80878559
500038800,-100.0792235
500038900,-100.2854289
500039000,-100.3768669
500039100,-100.3699691
500039200,-100.2643555
500039300,-100.0797521
500039400,-99.86035795
500039500,-99.6267499
500039600,-99.3577645
500039700,-99.04815615
500039800,-98.75561038
500039900,-98.5571649
500040000,-98.4886718
500040100,-98.56319811
500040200,-98.79607203
500040300,-99.15355462
500040400,-99.54323534
500040500,-99.80477724
500040600,-99.86418294
500040700,-99.81506321
500040800,-99.81696949
500040900,-99.92910513
500041000,-100.1624974
500041100,-100.4383179
500041200,-100.5863254
500041300,-100.4264994
500041400,-100.0122647
500041500,-99.59904422
500041600,-99.41695833
500041700,-99.56151014
500041800,-99.87714097
500041900,-100.1000273
500042000,-100.0960285
500042100,-99.96398674
500042200,-99.82289856
500042300,-99.69049834
500042400,-99.48471345
500042500,-99.20946389
500042600,-98.962108
500042700,-98.84343453
500042800,-98.88378308
500042900,-99.03400322
500043000,-99.15020352
500043100,-99.16689134
500043200,-99.12975173
500043300,-99.17619689
500043400,-99.3202316
500043500,-99.51254546
500043600,-99.68304059
500043700,-99.86023314
500043800,-100.063782
500043900,-100.1984822
500044000,-100.1931418
500044100,-100.1178319
500044200,-100.1268096
500044300,-100.242959
500044400,-100.3775867
500044500,-100.4239572
500044600,-100.3239158
500044700,-100.1034755
500044800,-99.83103897
500044900,-99.53098525
500045000,-99.23567176
500045100,-98.96675956
500045200,-98.7607496
500045300,-98.65860149
500045400,-98.66510527
500045500,-98.78531009
500045600,-99.01744049
500045700,-99.32672921
500045800,-99.59040383
500045900,-99.69525282
500046000,-99.66678284
500046100,-99.65357092
500046200,-99.68190381
500046300,-99.62013649
500046400,-99.37288725
500046500,-99.07283335
500046600,-98.90782329
500046700,-99.00349402
500046800,-99.30304227
500046900,-99.62406816
500047000,-99.74968226
500047100,-99.63447704
500047200,-99.41137054
500047300,-99.21847291
500047400,-99.07959801
500047500,-99.00464471
500047600,-98.99383955
500047700,-98.99348903
500047800,-98.92708019
500047900,-98.82502947
500048000,-98.7894451
500048100,-98.9430112
500048200,-99.25860708
500048300,-99.62153397
500048400,-99.84540708
500048500,-99.85347014
500048600,-99.72984409
500048700,-99.56221256
500048800,-99.39849492
500048900,-99.27728114
500049000,-99.26628692
500049100,-99.40203761
500049200,-99.60657143
500049300,-99.71642197
500049400,-99.63981904
500049500,-99.45905898
500049600,-99.30104957
500049700,-99.26531458
500049800,-99.30170531
500049900,-99.34415241
500050000,-99.37440856
