Swept SA,
A.14.62,N9000A
503 EP4 ,01
Segment,0
Number of Points,1001
Sweep Time,0.001
Start Frequency,490000000
Stop Frequency,510000000
Average Count,50
Average Type,Power(RMS)
RBW,1000000
RBW Filter,Gaussian
RBW Filter BW,3dB
VBW,100000
Sweep Type,Swept
X Axis Scale,Lin
PreAmp State,Off
PreAmp Band,Low
Trigger Source,Free
Trigger Level,1.2
Trigger Slope,Positive
Trigger Delay,0
Phase Noise Optimization,Narrow
Swept If Gain,Low
FFT If Gain,Autorange
RF Coupling,AC
FFT Width,411900
Ext Ref,10000000
Input,RF
RF Calibrator,Off
Attenuation,10
Ref Level Offset,0
External Gain,0
Trace Type,Average
Detector,Average
Trace Math,Off
Trace Math Oper1,Trace5
Trace Math Oper2,Trace6
Trace Math Offset,0
Normalize,Off
Trace Name,Trace1
X Axis Units,Hz
Y Axis Units,dBm
DATA,
490000000,-78.44579192
490020000,-79.29225225
490040000,-78.9698789
490060000,-78.76094191
490080000,-78.38954594
490100000,-78.45850672
490120000,-79.79802455
490140000,-79.09999691
490160000,-78.93493657
490180000,-78.52280165
490200000,-79.59777272
490220000,-79.30807688
490240000,-80.32588626
490260000,-78.90323001
490280000,-78.92857766
490300000,-79.13229443
490320000,-79.03318549
490340000,-79.29214581
490360000,-78.30136165
490380000,-78.96944325
490400000,-79.53504362
490420000,-79.23416318
490440000,-79.91213702
490460000,-79.23882345
490480000,-78.93365714
490500000,-78.53758877
490520000,-78.76367443
490540000,-79.01839153
490560000,-78.69798014
490580000,-79.15977763
490600000,-78.60652064
490620000,-78.66985804
490640000,-78.6647769
490660000,-78.88867504
490680000,-78.84469008
490700000,-78.61023047
490720000,-79.32929458
490740000,-78.4577472
490760000,-78.45453652
490780000,-79.00988457
490800000,-79.07297317
490820000,-79.40407569
490840000,-79.00636479
490860000,-79.08437232
490880000,-78.3503301
490900000,-79.19174044
490920000,-79.39644657
490940000,-79.75987399
490960000,-78.99671751
490980000,-79.11643272
491000000,-78.93772839
491020000,-79.19962266
491040000,-79.80270043
491060000,-79.46985714
491080000,-78.76387669
491100000,-78.9223568
491120000,-78.55423783
491140000,-79.143936
491160000,-78.79390572
491180000,-79.23351452
491200000,-79.15322489
491220000,-79.11875538
491240000,-79.13726483
491260000,-79.34896391
491280000,-78.91645648
491300000,-79.31883075
491320000,-78.62108127
491340000,-78.69561871
491360000,-79.37560642
491380000,-78.79213582
491400000,-78.34897653
491420000,-78.72359991
491440000,-79.42526326
491460000,-79.41515308
491480000,-79.1498377
491500000,-79.62589412
491520000,-79.0838889
491540000,-79.1126478
491560000,-78.8339264
491580000,-79.2942103
491600000,-79.13416081
491620000,-78.46829392
491640000,-79.27088305
491660000,-79.25716518
491680000,-79.40184932
491700000,-78.9422958
491720000,-79.29906391
491740000,-78.51410058
491760000,-78.99649196
491780000,-78.61503972
491800000,-79.13948407
491820000,-79.19173158
491840000,-80.02068633
491860000,-79.30390432
491880000,-79.24524996
491900000,-79.60297461
491920000,-79.42332569
491940000,-79.25995845
491960000,-78.48523077
491980000,-79.38753198
492000000,-79.09297011
492020000,-79.20401933
492040000,-78.82382751
492060000,-79.3346888
492080000,-79.46571149
492100000,-78.88090749
492120000,-79.45047006
492140000,-79.78028703
492160000,-79.65786688
492180000,-80.04191379
492200000,-79.47911216
492220000,-78.93433241
492240000,-79.21050008
492260000,-77.94149169
492280000,-78.55207426
492300000,-78.46495579
492320000,-78.85253122
492340000,-78.71918418
492360000,-78.09425108
492380000,-79.35823071
492400000,-78.08817048
492420000,-79.55593114
492440000,-79.29707935
492460000,-78.95128797
492480000,-78.97688329
492500000,-78.4559457
492520000,-78.5896296
492540000,-78.71544845
492560000,-79.2501064
492580000,-78.99946232
492600000,-79.42820208
492620000,-78.93850451
492640000,-78.75045384
492660000,-79.8567445
492680000,-79.51025378
492700000,-79.56792289
492720000,-79.55748663
492740000,-79.18974765
492760000,-79.74056656
492780000,-78.83892215
492800000,-79.00682546
492820000,-78.83854848
492840000,-79.40030249
492860000,-78.81245511
492880000,-78.27678075
492900000,-78.65236081
492920000,-78.81195465
492940000,-78.09287219
492960000,-78.49827946
492980000,-78.9923047
493000000,-79.54043823
493020000,-78.89202018
493040000,-78.84629207
493060000,-79.7939661
493080000,-79.76248588
493100000,-78.88186747
493120000,-78.42494379
493140000,-79.13202693
493160000,-79.29984439
493180000,-79.16806365
493200000,-79.45303712
493220000,-79.9875994
493240000,-79.26344624
493260000,-79.09428528
493280000,-79.83215304
493300000,-79.51693689
493320000,-79.44658808
493340000,-79.41497884
493360000,-78.92084451
493380000,-79.40271481
493400000,-79.17198186
493420000,-78.78386326
493440000,-79.49294792
493460000,-79.51143217
493480000,-79.65543063
493500000,-79.42794096
493520000,-79.35855064
493540000,-79.42559544
493560000,-79.4793523
493580000,-79.19412453
493600000,-79.39472389
493620000,-79.37858552
493640000,-78.382
493660000,-79.06336302
493680000,-79.11301474
493700000,-78.91621385
493720000,-79.03624916
493740000,-79.50159597
493760000,-79.71382487
493780000,-79.54155344
493800000,-79.23224326
493820000,-79.44380224
493840000,-79.73691252
493860000,-79.02530795
493880000,-79.41794203
493900000,-78.90784032
493920000,-79.41708683
493940000,-79.3788071
493960000,-79.31998476
493980000,-78.93161262
494000000,-79.31838627
494020000,-79.07462415
494040000,-79.94287392
494060000,-79.29685455
494080000,-79.40414383
494100000,-79.77748731
494120000,-78.81253944
494140000,-79.98764861
494160000,-78.93127758
494180000,-79.16761807
494200000,-78.82076974
494220000,-79.27191008
494240000,-79.06252519
494260000,-79.57519062
494280000,-79.06279509
494300000,-78.6317447
494320000,-78.5079923
494340000,-79.20774999
494360000,-79.02425438
494380000,-79.12141655
494400000,-80.03715643
494420000,-79.32650452
494440000,-79.04290461
494460000,-78.80121111
494480000,-78.55721865
494500000,-79.24108919
494520000,-79.04295363
494540000,-78.50515309
494560000,-79.82043624
494580000,-79.54065252
494600000,-79.21937757
494620000,-78.77442115
494640000,-78.90580856
494660000,-78.15159849
494680000,-79.34950372
494700000,-79.2510379
494720000,-78.45478794
494740000,-78.76955578
494760000,-78.8919278
494780000,-78.60311376
494800000,-78.3823287
494820000,-78.91019148
494840000,-79.18902462
494860000,-78.6995911
494880000,-79.80972934
494900000,-79.97770543
494920000,-80.14084629
494940000,-79.62782259
494960000,-79.70133281
494980000,-79.48278548
495000000,-79.53849458
495020000,-79.34721326
495040000,-79.20075884
495060000,-78.467746
495080000,-79.14280087
495100000,-78.81945431
495120000,-78.86479209
495140000,-79.18358074
495160000,-79.20412546
495180000,-79.118194
495200000,-79.7162143
495220000,-79.08879911
495240000,-78.97480234
495260000,-78.69694925
495280000,-78.99310854
495300000,-79.04962106
495320000,-79.06734698
495340000,-78.81229126
495360000,-78.96592375
495380000,-79.70110818
495400000,-78.68806879
495420000,-78.84582382
495440000,-79.19627258
495460000,-79.01818452
495480000,-78.80319647
495500000,-78.71628046
495520000,-79.79658285
495540000,-79.14692266
495560000,-78.88772143
495580000,-79.08200329
495600000,-79.55091209
495620000,-78.84896268
495640000,-79.18964536
495660000,-78.65411407
495680000,-79.1829196
495700000,-79.46275749
495720000,-79.54647029
495740000,-78.59128506
495760000,-79.96360072
495780000,-79.3808831
495800000,-78.90753214
495820000,-79.01260138
495840000,-78.80287414
495860000,-78.58256681
495880000,-78.96929388
495900000,-78.86708089
495920000,-78.8208356
495940000,-79.78634579
495960000,-78.9375798
495980000,-78.80841671
496000000,-78.81041132
496020000,-80.13870059
496040000,-78.61158549
496060000,-78.71809176
496080000,-79.23129769
496100000,-78.57894995
496120000,-78.86477168
496140000,-79.64477991
496160000,-79.1977529
496180000,-78.02844002
496200000,-79.07059964
496220000,-79.39634397
496240000,-79.04652546
496260000,-78.619592
496280000,-78.70775593
496300000,-79.71473558
496320000,-79.39127036
496340000,-78.50126565
496360000,-79.06344286
496380000,-80.01677052
496400000,-79.39287118
496420000,-79.22790538
496440000,-79.27718097
496460000,-78.94380955
496480000,-79.59492232
496500000,-79.75508005
496520000,-79.90470051
496540000,-79.41715261
496560000,-79.64283
496580000,-79.4430722
496600000,-79.65695473
496620000,-78.6478489
496640000,-78.75278505
496660000,-79.60787718
496680000,-78.90282165
496700000,-79.0478505
496720000,-79.60086497
496740000,-80.50580229
496760000,-79.59405752
496780000,-78.862055
496800000,-79.10086415
496820000,-78.95667844
496840000,-78.83129266
496860000,-78.38282702
496880000,-78.6459321
496900000,-80.13645314
496920000,-79.30592617
496940000,-80.29330646
496960000,-79.35455425
496980000,-79.35544313
497000000,-80.00118183
497020000,-79.61885246
497040000,-79.31526656
497060000,-78.70713375
497080000,-79.48347801
497100000,-79.30910371
497120000,-78.98588512
497140000,-79.82073904
497160000,-79.88054856
497180000,-79.45740962
497200000,-79.17964433
497220000,-79.70287366
497240000,-79.25011356
497260000,-78.67380056
497280000,-78.58946932
497300000,-78.89466158
497320000,-78.45601186
497340000,-78.22665451
497360000,-79.00031258
497380000,-79.15975516
497400000,-79.81977935
497420000,-79.76207056
497440000,-79.75912888
497460000,-78.64492521
497480000,-78.88810591
497500000,-80.09848414
497520000,-79.10887929
497540000,-79.42388491
497560000,-79.32456644
497580000,-78.99991418
497600000,-79.51884014
497620000,-79.21886311
497640000,-79.25157897
497660000,-78.65542625
497680000,-78.54284765
497700000,-79.2710869
497720000,-79.49064082
497740000,-78.75130933
497760000,-79.14740546
497780000,-79.2250851
497800000,-79.14377354
497820000,-79.93335886
497840000,-79.45912003
497860000,-79.03416733
497880000,-79.1388085
497900000,-78.95775141
497920000,-78.30599573
497940000,-78.55900458
497960000,-79.39969252
497980000,-78.94525213
498000000,-78.41706497
498020000,-78.73668983
498040000,-78.96557893
498060000,-79.6445071
498080000,-79.24958924
498100000,-78.32625327
498120000,-78.43651432
498140000,-79.02738611
498160000,-78.38959022
498180000,-78.20090667
498200000,-77.34720048
498220000,-77.12564819
498240000,-76.93020178
498260000,-76.13819917
498280000,-75.78043397
498300000,-75.12949907
498320000,-74.22613197
498340000,-73.31721845
498360000,-72.49599128
498380000,-71.63811121
498400000,-70.69853932
498420000,-69.66627262
498440000,-68.82888548
498460000,-67.9737375
498480000,-67.00100658
498500000,-66.0410682
498520000,-65.13393043
498540000,-64.24276255
498560000,-63.46250997
498580000,-62.59156632
498600000,-61.77397936
498620000,-60.95396052
498640000,-60.10043965
498660000,-59.32787234
498680000,-58.5837457
498700000,-57.86095916
498720000,-57.03472862
498740000,-56.36538824
498760000,-55.63492403
498780000,-54.93999085
498800000,-54.22652546
498820000,-53.5822863
498840000,-52.93369774
498860000,-52.30897277
498880000,-51.68322284
498900000,-51.02415661
498920000,-50.45651826
498940000,-49.87631894
498960000,-49.30214985
498980000,-48.75047453
499000000,-48.19093642
499020000,-47.67462983
499040000,-47.14437728
499060000,-46.65916032
499080000,-46.17669359
499100000,-45.66966398
499120000,-45.20925252
499140000,-44.74784864
499160000,-44.29912643
499180000,-43.85449011
499200000,-43.45053599
499220000,-43.03802524
499240000,-42.63673566
499260000,-42.2543668
499280000,-41.86501408
499300000,-41.50841799
499320000,-41.15325105
499340000,-40.81685716
499360000,-40.4828874
499380000,-40.16114837
499400000,-39.84846779
499420000,-39.54536105
499440000,-39.26330079
499460000,-38.96612817
499480000,-38.70578495
499500000,-38.45595807
499520000,-38.20646812
499540000,-37.96297327
499560000,-37.72679322
499580000,-37.50620959
499600000,-37.30316351
499620000,-37.10579861
499640000,-36.91329167
499660000,-36.74021274
499680000,-36.56980851
499700000,-36.4079085
499720000,-36.2559393
499740000,-36.11758508
499760000,-35.99212116
499780000,-35.87497408
499800000,-35.76729194
499820000,-35.67510709
499840000,-35.574798
499860000,-35.49356329
499880000,-35.42379102
499900000,-35.35969789
499920000,-35.30944216
499940000,-35.26416669
499960000,-35.22961494
499980000,-35.21106978
500000000,-35.19358269
500020000,-35.19564299
500040000,-35.20061185
500060000,-35.21137103
500080000,-35.23263199
500100000,-35.26935671
500120000,-35.30231755
500140000,-35.36188331
500160000,-35.43059668
500180000,-35.50589969
500200000,-35.58940004
500220000,-35.68705629
500240000,-35.77841244
500260000,-35.89328912
500280000,-36.01560575
500300000,-36.148723
500320000,-36.28676474
500340000,-36.44153522
500360000,-36.60495641
500380000,-36.7822268
500400000,-36.95369574
500420000,-37.14011216
500440000,-37.35129636
500460000,-37.55507808
500480000,-37.7738638
500500000,-37.99627228
500520000,-38.24140142
500540000,-38.50214117
500560000,-38.77443608
500580000,-39.0397094
500600000,-39.32716032
500620000,-39.62075494
500640000,-39.91769579
500660000,-40.2446714
500680000,-40.5742414
500700000,-40.90728778
500720000,-41.25485884
500740000,-41.61221605
500760000,-41.97325129
500780000,-42.37918191
500800000,-42.77151193
500820000,-43.17449061
500840000,-43.58634132
500860000,-44.00828603
500880000,-44.47614793
500900000,-44.90074136
500920000,-45.38486803
500940000,-45.86944857
500960000,-46.35631732
500980000,-46.85383326
501000000,-47.36817587
501020000,-47.90453485
501040000,-48.44986343
501060000,-48.99849768
501080000,-49.57855085
501100000,-50.15464082
501120000,-50.77351459
501140000,-51.35759683
501160000,-51.96781447
501180000,-52.6195284
501200000,-53.29268688
501220000,-53.91405756
501240000,-54.65442664
501260000,-55.34012495
501280000,-56.0608624
501300000,-56.78116451
501320000,-57.54985318
501340000,-58.25669252
501360000,-59.03779721
501380000,-59.85025719
501400000,-60.68750304
501420000,-61.51785933
501440000,-62.31164233
501460000,-63.19387927
501480000,-64.06498768
501500000,-65.01435977
501520000,-65.80495171
501540000,-66.82060742
501560000,-67.75482532
501580000,-68.60308619
501600000,-69.46221847
501620000,-70.42552613
501640000,-71.37868431
501660000,-72.32850967
501680000,-73.33680884
501700000,-74.11488229
501720000,-74.75972802
501740000,-75.79333705
501760000,-76.05855841
501780000,-76.60626839
501800000,-77.21324062
501820000,-77.89133801
501840000,-78.6233451
501860000,-78.89573535
501880000,-78.85299232
501900000,-77.74079514
501920000,-78.44054626
501940000,-78.45438154
501960000,-79.05402317
501980000,-79.25721537
502000000,-79.17253761
502020000,-78.78459456
502040000,-78.94095117
502060000,-78.39043738
502080000,-78.07547808
502100000,-78.68102233
502120000,-78.5354283
502140000,-79.2745164
502160000,-78.59085522
502180000,-79.38056962
502200000,-79.21582213
502220000,-78.89378147
502240000,-79.65713409
502260000,-80.26695119
502280000,-79.9015402
502300000,-79.2443601
502320000,-79.14419517
502340000,-78.58166298
502360000,-79.52176271
502380000,-78.7388716
502400000,-79.4782121
502420000,-79.09356734
502440000,-79.5313315
502460000,-78.88540191
502480000,-78.45561595
502500000,-79.26005859
502520000,-78.55120021
502540000,-78.6286686
502560000,-78.10951921
502580000,-79.34898477
502600000,-79.9759806
502620000,-79.3264021
502640000,-79.52091144
502660000,-79.00726704
502680000,-79.43538015
502700000,-79.81371095
502720000,-79.60514038
502740000,-79.61286726
502760000,-80.00629943
502780000,-79.22480309
502800000,-78.4908282
502820000,-79.4079017
502840000,-78.86103372
502860000,-79.20071334
502880000,-78.821395
502900000,-78.7726772
502920000,-78.72900905
502940000,-79.16787868
502960000,-79.40667011
502980000,-79.15094741
503000000,-78.74836724
503020000,-78.89515873
503040000,-79.46688576
503060000,-80.10449539
503080000,-79.58471779
503100000,-79.02643112
503120000,-79.66734834
503140000,-79.099177
503160000,-78.80945971
503180000,-79.50015163
503200000,-78.19538064
503220000,-78.50257532
503240000,-78.65223511
503260000,-78.72548283
503280000,-78.78671439
503300000,-79.37589261
503320000,-79.23110801
503340000,-79.17283666
503360000,-78.65436719
503380000,-79.37344533
503400000,-79.75466033
503420000,-79.66051528
503440000,-79.12964271
503460000,-78.91548938
503480000,-78.89594224
503500000,-79.87168811
503520000,-78.98126668
503540000,-79.29537396
503560000,-78.77593971
503580000,-78.50300715
503600000,-79.17060126
503620000,-79.28954792
503640000,-78.92085798
503660000,-78.49141985
503680000,-78.74517075
503700000,-79.3947047
503720000,-78.53583528
503740000,-78.52622055
503760000,-78.28904097
503780000,-78.98725092
503800000,-78.83128347
503820000,-79.67476446
503840000,-79.65854857
503860000,-79.99730054
503880000,-79.18882219
503900000,-79.42875268
503920000,-78.930368
503940000,-79.47198592
503960000,-79.04548656
503980000,-79.59430989
504000000,-79.20369427
504020000,-78.96554238
504040000,-78.93842018
504060000,-78.9803846
504080000,-79.63200481
504100000,-79.46564161
504120000,-79.77197876
504140000,-79.22150021
504160000,-79.1466558
504180000,-78.95530548
504200000,-78.88619804
504220000,-79.26255569
504240000,-78.51651195
504260000,-79.22845473
504280000,-79.24241308
504300000,-79.20695515
504320000,-78.93298334
504340000,-79.23707441
504360000,-79.00840171
504380000,-79.00185541
504400000,-79.70576971
504420000,-78.54200618
504440000,-78.0335674
504460000,-79.06738354
504480000,-79.26433493
504500000,-78.88579815
504520000,-79.02814152
504540000,-78.99602215
504560000,-78.99747629
504580000,-78.70888948
504600000,-78.82849373
504620000,-79.49179843
504640000,-79.50864609
504660000,-79.35188519
504680000,-78.96645786
504700000,-78.92405683
504720000,-78.718164
504740000,-78.87535019
504760000,-80.00961518
504780000,-79.15213842
504800000,-78.70072563
504820000,-79.42031706
504840000,-79.03027515
504860000,-78.6492006
504880000,-79.35846463
504900000,-78.45214112
504920000,-79.32332365
504940000,-79.24770862
504960000,-79.2895388
504980000,-78.75443201
505000000,-79.3602396
505020000,-78.89979552
505040000,-78.35267762
505060000,-79.05506302
505080000,-78.90994431
505100000,-78.58584854
505120000,-78.31837716
505140000,-78.88104329
505160000,-79.14707858
505180000,-79.90152426
505200000,-79.46036414
505220000,-78.89656251
505240000,-79.57296582
505260000,-78.52443894
505280000,-79.22322184
505300000,-79.18881024
505320000,-79.66851359
505340000,-78.79221803
505360000,-79.33381035
505380000,-79.05329358
505400000,-79.25564331
505420000,-79.18012906
505440000,-79.21218932
505460000,-79.03640177
505480000,-79.33863116
505500000,-79.04042844
505520000,-78.96857222
505540000,-78.92844873
505560000,-79.67300056
505580000,-78.83395192
505600000,-79.38662019
505620000,-78.99423964
505640000,-78.78783707
505660000,-78.81266996
505680000,-79.66852482
505700000,-79.23818549
505720000,-79.38663465
505740000,-79.30658709
505760000,-79.19469119
505780000,-78.8703628
505800000,-79.75161811
505820000,-79.02323946
505840000,-78.79492533
505860000,-79.37506922
505880000,-79.28481831
505900000,-79.55332586
505920000,-79.14537153
505940000,-79.20105681
505960000,-78.97709439
505980000,-78.47033367
506000000,-77.86549205
506020000,-79.02391398
506040000,-78.94226571
506060000,-79.41925422
506080000,-79.24040044
506100000,-79.95797917
506120000,-80.06025202
506140000,-79.52790745
506160000,-78.40545084
506180000,-78.69007251
506200000,-79.36779012
506220000,-79.81492097
506240000,-79.31188913
506260000,-78.79055487
506280000,-78.06844212
506300000,-78.69610136
506320000,-79.41222694
506340000,-78.50537946
506360000,-79.16123107
506380000,-79.96750028
506400000,-79.8564929
506420000,-78.95386769
506440000,-78.96311492
506460000,-79.66988898
506480000,-79.21593265
506500000,-79.13725844
506520000,-79.1084049
506540000,-78.3983154
506560000,-78.606555
506580000,-79.11716488
506600000,-78.84213954
506620000,-79.14658097
506640000,-79.13028469
506660000,-79.31307386
506680000,-79.35123633
506700000,-78.91747691
506720000,-78.76881106
506740000,-79.40486689
506760000,-78.41266141
506780000,-79.12201784
506800000,-79.61308877
506820000,-79.27690828
506840000,-80.05925291
506860000,-78.7085872
506880000,-79.15765156
506900000,-79.37399953
506920000,-78.88617067
506940000,-78.08181106
506960000,-78.46539761
506980000,-78.80440358
507000000,-79.64126883
507020000,-79.6523069
507040000,-79.20030012
507060000,-79.14072866
507080000,-77.88114954
507100000,-79.38599112
507120000,-79.40475758
507140000,-79.32597326
507160000,-79.47033766
507180000,-78.56335472
507200000,-79.51447175
507220000,-79.54506047
507240000,-79.39371623
507260000,-79.28821555
507280000,-79.79533982
507300000,-79.82266687
507320000,-79.12021161
507340000,-79.68146361
507360000,-79.35681947
507380000,-79.33475112
507400000,-79.06404257
507420000,-79.21546975
507440000,-79.30219916
507460000,-78.11657039
507480000,-78.32692933
507500000,-78.88277159
507520000,-79.6153793
507540000,-79.7451952
507560000,-79.14148056
507580000,-78.70400196
507600000,-79.19165488
507620000,-78.93886197
507640000,-79.05023191
507660000,-78.99897841
507680000,-79.13555906
507700000,-79.01315611
507720000,-78.76707415
507740000,-78.97451411
507760000,-78.89733897
507780000,-79.15516226
507800000,-79.76598371
507820000,-79.6119195
507840000,-79.45853982
507860000,-79.48630399
507880000,-79.59365345
507900000,-79.7313842
507920000,-78.94768507
507940000,-78.79068234
507960000,-79.36099722
507980000,-78.6968271
508000000,-79.16974021
508020000,-79.51280192
508040000,-78.8949278
508060000,-78.97012824
508080000,-79.39303194
508100000,-79.10398124
508120000,-79.47545154
508140000,-79.24613251
508160000,-78.99832892
508180000,-79.7534937
508200000,-79.19553388
508220000,-78.50788691
508240000,-78.35954124
508260000,-78.62905859
508280000,-78.96818267
508300000,-79.53182715
508320000,-79.6841107
508340000,-78.89591288
508360000,-78.94526616
508380000,-78.82237643
508400000,-79.37854559
508420000,-79.22387464
508440000,-78.91925247
508460000,-78.78374047
508480000,-79.19753896
508500000,-79.09843073
508520000,-79.30546548
508540000,-79.34287136
508560000,-79.37769456
508580000,-79.53736375
508600000,-79.39191907
508620000,-79.96770241
508640000,-78.74269406
508660000,-79.01718973
508680000,-79.02139187
508700000,-78.94552473
508720000,-79.07280974
508740000,-78.95323978
508760000,-78.76123467
508780000,-79.66415053
508800000,-79.02105658
508820000,-78.83205178
508840000,-78.92315068
508860000,-78.7542519
508880000,-78.97630645
508900000,-78.79610095
508920000,-79.56182135
508940000,-79.34075253
508960000,-79.84088785
508980000,-80.40474237
509000000,-79.0420211
509020000,-79.16534723
509040000,-79.14903677
509060000,-79.12255174
509080000,-78.78531518
509100000,-78.99396799
509120000,-79.05341861
509140000,-79.87209291
509160000,-79.08103098
509180000,-79.03877719
509200000,-79.37034246
509220000,-79.14372396
509240000,-78.80816283
509260000,-79.50051959
509280000,-78.81281091
509300000,-79.55496821
509320000,-79.1975894
509340000,-79.11276739
509360000,-79.79868164
509380000,-79.45332419
509400000,-79.31987745
509420000,-78.69742298
509440000,-79.22342683
509460000,-78.74680004
509480000,-78.50678517
509500000,-79.57971616
509520000,-79.33293452
509540000,-79.09487103
509560000,-78.99551575
509580000,-79.27531079
509600000,-79.1148884
509620000,-79.33706408
509640000,-79.15544601
509660000,-79.62933431
509680000,-78.41638245
509700000,-79.17272735
509720000,-79.12657889
509740000,-78.90195897
509760000,-78.64872058
509780000,-78.8415356
509800000,-79.22395922
509820000,-78.44345561
509840000,-78.4336614
509860000,-78.92004281
509880000,-79.7233022
509900000,-79.43240542
509920000,-79.74642869
509940000,-79.40187159
509960000,-79.18030913
509980000,-79.34555257
510000000,-79.11924178
